Freq (hertz)	Ra (norm)	Xa (norm)	Za (norm)	SPL (dB)	Ze (ohms)	Xd (mm) 	WPhase (deg)	UPhase (deg)	CPhase (deg)	Delay (msec)	Efficiency (%)	Ein (volts)	Pin (watts)	Iin (amps)	ZePhase (deg)

10.000000	0.001815	0.051104	0.051137	75.454697	5.375251	0.647468	165.208119	165.208119	165.208119	4.140223	0.003679	2.830000	1.446837	0.526487	13.818073
10.144045	0.001867	0.051839	0.051873	75.701694	5.380523	0.647365	164.993389	164.993389	164.993389	4.141529	0.003901	2.830000	1.444172	0.525971	14.017683
10.290166	0.001922	0.052584	0.052619	75.948644	5.385959	0.647260	164.775496	164.775496	164.775496	4.142869	0.004137	2.830000	1.441433	0.525440	14.220188
10.438391	0.001977	0.053340	0.053377	76.195548	5.391564	0.647151	164.554391	164.554391	164.554391	4.144243	0.004388	2.830000	1.438617	0.524894	14.425630
10.588751	0.002035	0.054107	0.054145	76.442402	5.397345	0.647038	164.330027	164.330027	164.330027	4.145653	0.004654	2.830000	1.435722	0.524332	14.634052
10.741277	0.002094	0.054884	0.054924	76.689207	5.403307	0.646922	164.102352	164.102352	164.102352	4.147098	0.004936	2.830000	1.432746	0.523753	14.845498
10.896000	0.002154	0.055673	0.055715	76.935959	5.409457	0.646803	163.871317	163.871317	163.871317	4.148580	0.005236	2.830000	1.429687	0.523158	15.060011
11.052951	0.002217	0.056473	0.056517	77.182657	5.415800	0.646679	163.636868	163.636868	163.636868	4.150099	0.005554	2.830000	1.426542	0.522545	15.277636
11.212164	0.002281	0.057285	0.057330	77.429300	5.422343	0.646552	163.398954	163.398954	163.398954	4.151656	0.005892	2.830000	1.423311	0.521915	15.498418
11.373670	0.002347	0.058108	0.058155	77.675885	5.429094	0.646420	163.157522	163.157522	163.157522	4.153252	0.006251	2.830000	1.419989	0.521266	15.722404
11.537502	0.002415	0.058943	0.058992	77.922410	5.436058	0.646285	162.912516	162.912516	162.912516	4.154887	0.006632	2.830000	1.416575	0.520598	15.949639
11.703695	0.002485	0.059790	0.059841	78.168874	5.443244	0.646145	162.663883	162.663883	162.663883	4.156563	0.007037	2.830000	1.413067	0.519911	16.180172
11.872281	0.002557	0.060648	0.060702	78.415274	5.450659	0.646000	162.411565	162.411565	162.411565	4.158280	0.007466	2.830000	1.409462	0.519203	16.414049
12.043295	0.002631	0.061520	0.061576	78.661608	5.458311	0.645851	162.155505	162.155505	162.155505	4.160038	0.007923	2.830000	1.405757	0.518475	16.651319
12.216773	0.002708	0.062403	0.062462	78.907874	5.466208	0.645697	161.895646	161.895646	161.895646	4.161839	0.008408	2.830000	1.401950	0.517726	16.892031
12.392750	0.002786	0.063299	0.063361	79.154069	5.474359	0.645538	161.631928	161.631928	161.631928	4.163684	0.008923	2.830000	1.398038	0.516955	17.136235
12.571262	0.002867	0.064208	0.064272	79.400191	5.482773	0.645374	161.364292	161.364292	161.364292	4.165572	0.009471	2.830000	1.394018	0.516162	17.383982
12.752345	0.002950	0.065130	0.065197	79.646238	5.491459	0.645205	161.092676	161.092676	161.092676	4.167505	0.010053	2.830000	1.389888	0.515346	17.635322
12.936037	0.003036	0.066066	0.066135	79.892206	5.500426	0.645030	160.817018	160.817018	160.817018	4.169483	0.010671	2.830000	1.385646	0.514506	17.890307
13.122374	0.003124	0.067014	0.067087	80.138093	5.509685	0.644849	160.537255	160.537255	160.537255	4.171508	0.011328	2.830000	1.381287	0.513641	18.148989
13.311396	0.003214	0.067976	0.068052	80.383896	5.519246	0.644663	160.253322	160.253322	160.253322	4.173579	0.012027	2.830000	1.376809	0.512751	18.411422
13.503140	0.003307	0.068952	0.069031	80.629612	5.529120	0.644470	159.965156	159.965156	159.965156	4.175698	0.012770	2.830000	1.372210	0.511836	18.677659
13.697647	0.003403	0.069942	0.070024	80.875238	5.539318	0.644271	159.672688	159.672688	159.672688	4.177864	0.013559	2.830000	1.367486	0.510893	18.947755
13.894955	0.003502	0.070945	0.071032	81.120770	5.549853	0.644065	159.375852	159.375852	159.375852	4.180080	0.014399	2.830000	1.362633	0.509923	19.221764
14.095105	0.003603	0.071963	0.072053	81.366206	5.560736	0.643853	159.074578	159.074578	159.074578	4.182344	0.015292	2.830000	1.357650	0.508925	19.499742
14.298139	0.003708	0.072996	0.073090	81.611542	5.571980	0.643634	158.768798	158.768798	158.768798	4.184659	0.016242	2.830000	1.352533	0.507898	19.781745
14.504097	0.003815	0.074043	0.074141	81.856774	5.583598	0.643407	158.458440	158.458440	158.458440	4.187023	0.017253	2.830000	1.347277	0.506842	20.067830
14.713021	0.003926	0.075105	0.075208	82.101899	5.595606	0.643173	158.143431	158.143431	158.143431	4.189439	0.018328	2.830000	1.341881	0.505754	20.358055
14.924955	0.004040	0.076182	0.076289	82.346912	5.608017	0.642931	157.823698	157.823698	157.823698	4.191906	0.019472	2.830000	1.336341	0.504635	20.652477
15.139942	0.004157	0.077275	0.077387	82.591809	5.620846	0.642681	157.499167	157.499167	157.499167	4.194424	0.020690	2.830000	1.330653	0.503483	20.951156
15.358026	0.004277	0.078383	0.078500	82.836586	5.634109	0.642422	157.169761	157.169761	157.169761	4.196994	0.021986	2.830000	1.324814	0.502298	21.254150
15.579251	0.004401	0.079507	0.079628	83.081240	5.647823	0.642155	156.835404	156.835404	156.835404	4.199617	0.023365	2.830000	1.318820	0.501078	21.561520
15.803663	0.004528	0.080646	0.080774	83.325764	5.662006	0.641879	156.496016	156.496016	156.496016	4.202292	0.024835	2.830000	1.312669	0.499823	21.873325
16.031307	0.004660	0.081802	0.081935	83.570155	5.676675	0.641593	156.151519	156.151519	156.151519	4.205019	0.026399	2.830000	1.306355	0.498531	22.189626
16.262231	0.004795	0.082975	0.083113	83.814407	5.691850	0.641298	155.801830	155.801830	155.801830	4.207800	0.028066	2.830000	1.299876	0.497202	22.510485
16.496481	0.004934	0.084164	0.084308	84.058515	5.707551	0.640992	155.446867	155.446867	155.446867	4.210632	0.029841	2.830000	1.293227	0.495834	22.835963
16.734105	0.005076	0.085370	0.085520	84.302474	5.723797	0.640676	155.086547	155.086547	155.086547	4.213518	0.031732	2.830000	1.286406	0.494427	23.166123
16.975152	0.005223	0.086592	0.086750	84.546278	5.740612	0.640350	154.720783	154.720783	154.720783	4.216456	0.033748	2.830000	1.279408	0.492979	23.501026
17.219671	0.005375	0.087833	0.087997	84.789922	5.758018	0.640012	154.349490	154.349490	154.349490	4.219446	0.035897	2.830000	1.272230	0.491489	23.840736
17.467712	0.005530	0.089090	0.089262	85.033398	5.776038	0.639662	153.972580	153.972580	153.972580	4.222488	0.038188	2.830000	1.264867	0.489955	24.185316
17.719326	0.005691	0.090366	0.090545	85.276702	5.794699	0.639301	153.589962	153.589962	153.589962	4.225580	0.040631	2.830000	1.257316	0.488377	24.534828
17.974565	0.005855	0.091660	0.091846	85.519825	5.814027	0.638927	153.201547	153.201547	153.201547	4.228724	0.043237	2.830000	1.249573	0.486754	24.889337
18.233480	0.006025	0.092971	0.093166	85.762762	5.834049	0.638540	152.807241	152.807241	152.807241	4.231917	0.046017	2.830000	1.241634	0.485083	25.248906
18.496125	0.006199	0.094302	0.094505	86.005505	5.854794	0.638139	152.406951	152.406951	152.406951	4.235159	0.048983	2.830000	1.233496	0.483365	25.613597
18.762553	0.006379	0.095651	0.095863	86.248046	5.876294	0.637725	152.000582	152.000582	152.000582	4.238449	0.052149	2.830000	1.225154	0.481596	25.983476
19.032818	0.006564	0.097019	0.097241	86.490379	5.898580	0.637295	151.588037	151.588037	151.588037	4.241785	0.055529	2.830000	1.216604	0.479777	26.358605
19.306977	0.006754	0.098407	0.098638	86.732493	5.921686	0.636851	151.169218	151.169218	151.169218	4.245166	0.059139	2.830000	1.207843	0.477904	26.739046
19.585085	0.006949	0.099814	0.100055	86.974382	5.945648	0.636391	150.744025	150.744025	150.744025	4.248591	0.062994	2.830000	1.198867	0.475978	27.124863
19.867199	0.007150	0.101241	0.101493	87.216037	5.970504	0.635915	150.312358	150.312358	150.312358	4.252057	0.067114	2.830000	1.189672	0.473997	27.516118
20.153377	0.007357	0.102687	0.102951	87.457447	5.996293	0.635422	149.874113	149.874113	149.874113	4.255562	0.071516	2.830000	1.180254	0.471958	27.912872
20.443677	0.007570	0.104155	0.104429	87.698604	6.023057	0.634912	149.429188	149.429188	149.429188	4.259105	0.076222	2.830000	1.170610	0.469861	28.315186
20.738158	0.007789	0.105643	0.105929	87.939498	6.050841	0.634383	148.977476	148.977476	148.977476	4.262683	0.081255	2.830000	1.160735	0.467704	28.723119
21.036882	0.008015	0.107151	0.107451	88.180118	6.079690	0.633836	148.518871	148.518871	148.518871	4.266292	0.086639	2.830000	1.150627	0.465484	29.136730
21.339908	0.008247	0.108681	0.108994	88.420453	6.109654	0.633269	148.053264	148.053264	148.053264	4.269929	0.092399	2.830000	1.140282	0.463201	29.556077
21.647300	0.008485	0.110233	0.110559	88.660492	6.140786	0.632681	147.580547	147.580547	147.580547	4.273592	0.098565	2.830000	1.129696	0.460853	29.981215
21.959119	0.008731	0.111806	0.112146	88.900223	6.173140	0.632073	147.100608	147.100608	147.100608	4.277277	0.105167	2.830000	1.118867	0.458438	30.412198
22.275430	0.008983	0.113401	0.113756	89.139634	6.206774	0.631442	146.613335	146.613335	146.613335	4.280979	0.112238	2.830000	1.107791	0.455953	30.849078
22.596297	0.009243	0.115018	0.115389	89.378712	6.241752	0.630789	146.118615	146.118615	146.118615	4.284694	0.119815	2.830000	1.096465	0.453398	31.291905
22.921786	0.009511	0.116658	0.117045	89.617444	6.278137	0.630112	145.616333	145.616333	145.616333	4.288417	0.127936	2.830000	1.084887	0.450771	31.740725
23.251963	0.009786	0.118321	0.118725	89.855815	6.316000	0.629411	145.106373	145.106373	145.106373	4.292143	0.136645	2.830000	1.073053	0.448068	32.195583
23.586897	0.010069	0.120007	0.120429	90.093812	6.355416	0.628684	144.588618	144.588618	144.588618	4.295866	0.145987	2.830000	1.060962	0.445290	32.656520
23.926655	0.010360	0.121717	0.122157	90.331420	6.396461	0.627930	144.062950	144.062950	144.062950	4.299581	0.156013	2.830000	1.048612	0.442432	33.123572
24.271307	0.010659	0.123450	0.123910	90.568622	6.439221	0.627149	143.529250	143.529250	143.529250	4.303280	0.166777	2.830000	1.036000	0.439494	33.596772
24.620924	0.010967	0.125208	0.125687	90.805402	6.483785	0.626340	142.987398	142.987398	142.987398	4.306956	0.178339	2.830000	1.023125	0.436473	34.076149
24.975577	0.011284	0.126990	0.127490	91.041743	6.530246	0.625501	142.437274	142.437274	142.437274	4.310603	0.190763	2.830000	1.009985	0.433368	34.561725
25.335338	0.011611	0.128797	0.129319	91.277628	6.578708	0.624631	141.878755	141.878755	141.878755	4.314211	0.204120	2.830000	0.996581	0.430176	35.053517
25.700282	0.011946	0.130628	0.131173	91.513038	6.629277	0.623729	141.311720	141.311720	141.311720	4.317772	0.218486	2.830000	0.982910	0.426894	35.551536
26.070482	0.012291	0.132485	0.133054	91.747954	6.682070	0.622795	140.736046	140.736046	140.736046	4.321278	0.233947	2.830000	0.968974	0.423521	36.055786
26.446016	0.012647	0.134368	0.134962	91.982355	6.737211	0.621825	140.151610	140.151610	140.151610	4.324717	0.250594	2.830000	0.954771	0.420055	36.566260
26.826958	0.013012	0.136277	0.136896	92.216222	6.794831	0.620821	139.558289	139.558289	139.558289	4.328079	0.268527	2.830000	0.940304	0.416493	37.082947
27.213388	0.013388	0.138212	0.138859	92.449532	6.855074	0.619779	138.955960	138.955960	138.955960	4.331353	0.287857	2.830000	0.925573	0.412833	37.605822
27.605384	0.013774	0.140173	0.140848	92.682263	6.918091	0.618699	138.344500	138.344500	138.344500	4.334527	0.308704	2.830000	0.910580	0.409072	38.134852
28.003026	0.014172	0.142162	0.142867	92.914391	6.984048	0.617579	137.723785	137.723785	137.723785	4.337588	0.331201	2.830000	0.895328	0.405209	38.669989
28.406397	0.014581	0.144178	0.144913	93.145893	7.053120	0.616417	137.093694	137.093694	137.093694	4.340523	0.355493	2.830000	0.879819	0.401241	39.211175
28.815578	0.015002	0.146222	0.146989	93.376743	7.125497	0.615214	136.454105	136.454105	136.454105	4.343318	0.381739	2.830000	0.864057	0.397165	39.758334
29.230652	0.015435	0.148293	0.149094	93.606915	7.201386	0.613965	135.804896	135.804896	135.804896	4.345956	0.410116	2.830000	0.848046	0.392980	40.311376
29.651706	0.015881	0.150393	0.151229	93.836382	7.281007	0.612671	135.145949	135.145949	135.145949	4.348423	0.440817	2.830000	0.831792	0.388682	40.870191
30.078825	0.016339	0.152522	0.153394	94.065116	7.364601	0.611329	134.477144	134.477144	134.477144	4.350702	0.474055	2.830000	0.815300	0.384271	41.434648
30.512097	0.016811	0.154679	0.155590	94.293086	7.452427	0.609938	133.798367	133.798367	133.798367	4.352774	0.510065	2.830000	0.798578	0.379742	42.004597
30.951609	0.017296	0.156866	0.157817	94.520264	7.544768	0.608496	133.109501	133.109501	133.109501	4.354622	0.549109	2.830000	0.781632	0.375094	42.579860
31.397452	0.017795	0.159083	0.160075	94.746618	7.641928	0.607002	132.410436	132.410436	132.410436	4.356225	0.591473	2.830000	0.764472	0.370325	43.160231
31.849718	0.018308	0.161330	0.162365	94.972115	7.744243	0.605452	131.701062	131.701062	131.701062	4.357563	0.637475	2.830000	0.747107	0.365433	43.745475
32.308498	0.018836	0.163607	0.164688	95.196722	7.852076	0.603846	130.981271	130.981271	130.981271	4.358615	0.687469	2.830000	0.729548	0.360414	44.335321
32.773887	0.019379	0.165915	0.167043	95.420404	7.965823	0.602182	130.250962	130.250962	130.250962	4.359358	0.741845	2.830000	0.711805	0.355268	44.929460
33.245979	0.019937	0.168254	0.169431	95.643124	8.085919	0.600458	129.510034	129.510034	129.510034	4.359769	0.801040	2.830000	0.693893	0.349991	45.527540
33.724872	0.020512	0.170624	0.171853	95.864847	8.212841	0.598672	128.758393	128.758393	128.758393	4.359824	0.865535	2.830000	0.675826	0.344582	46.129160
34.210663	0.021103	0.173027	0.174309	96.085533	8.347112	0.596821	127.995949	127.995949	127.995949	4.359497	0.935868	2.830000	0.657617	0.339039	46.733865
34.703452	0.021710	0.175461	0.176799	96.305143	8.489308	0.594904	127.222616	127.222616	127.222616	4.358762	1.012638	2.830000	0.639285	0.333361	47.341141
35.203338	0.022336	0.177928	0.179325	96.523637	8.640065	0.592919	126.438315	126.438315	126.438315	4.357591	1.096514	2.830000	0.620846	0.327544	47.950403
35.710426	0.022979	0.180428	0.181886	96.740973	8.800087	0.590863	125.642972	125.642972	125.642972	4.355958	1.188240	2.830000	0.602320	0.321588	48.560990
36.224818	0.023640	0.182962	0.184483	96.957107	8.970153	0.588735	124.836519	124.836519	124.836519	4.353832	1.288649	2.830000	0.583728	0.315491	49.172152
36.746619	0.024321	0.185529	0.187116	97.171996	9.151129	0.586532	124.018899	124.018899	124.018899	4.351184	1.398672	2.830000	0.565091	0.309251	49.783039
37.275937	0.025020	0.188130	0.189786	97.385593	9.343981	0.584253	123.190058	123.190058	123.190058	4.347982	1.519349	2.830000	0.546432	0.302869	50.392691
37.812880	0.025740	0.190765	0.192494	97.597853	9.549789	0.581895	122.349953	122.349953	122.349953	4.344197	1.651843	2.830000	0.527777	0.296342	51.000014
38.357556	0.026480	0.193435	0.195239	97.808727	9.769761	0.579456	121.498548	121.498548	121.498548	4.339795	1.797460	2.830000	0.509152	0.289669	51.603766
38.910079	0.027242	0.196140	0.198023	98.018168	10.005258	0.576934	120.635819	120.635819	120.635819	4.334745	1.957657	2.830000	0.490585	0.282851	52.202535
39.470560	0.028025	0.198880	0.200845	98.226124	10.257814	0.574327	119.761751	119.761751	119.761751	4.329011	2.134069	2.830000	0.472105	0.275887	52.794708
40.039115	0.028830	0.201657	0.203707	98.432545	10.529166	0.571633	118.876338	118.876338	118.876338	4.322562	2.328520	2.830000	0.453742	0.268777	53.378444
40.615860	0.029658	0.204469	0.206609	98.637380	10.821286	0.568850	117.979588	117.979588	117.979588	4.315363	2.543054	2.830000	0.435529	0.261522	53.951631
41.200912	0.030510	0.207318	0.209551	98.840575	11.136424	0.565976	117.071519	117.071519	117.071519	4.307380	2.779947	2.830000	0.417499	0.254121	54.511840
41.794392	0.031386	0.210204	0.212534	99.042077	11.477157	0.563010	116.152163	116.152163	116.152163	4.298578	3.041740	2.830000	0.399687	0.246577	55.056272
42.396421	0.032287	0.213127	0.215558	99.241832	11.846447	0.559948	115.221563	115.221563	115.221563	4.288924	3.331248	2.830000	0.382129	0.238890	55.581682
43.007121	0.033213	0.216087	0.218625	99.439784	12.247718	0.556790	114.279778	114.279778	114.279778	4.278383	3.651592	2.830000	0.364864	0.231063	56.084299
43.626619	0.034166	0.219086	0.221734	99.635877	12.684939	0.553534	113.326879	113.326879	113.326879	4.266922	4.006201	2.830000	0.347928	0.223099	56.559718
44.255040	0.035145	0.222122	0.224886	99.830056	13.162747	0.550178	112.362956	112.362956	112.362956	4.254508	4.398830	2.830000	0.331362	0.215001	57.002764
44.892513	0.036153	0.225198	0.228081	100.022265	13.686572	0.546722	111.388109	111.388109	111.388109	4.241108	4.833542	2.830000	0.315207	0.206772	57.407326
45.539168	0.037188	0.228312	0.231321	100.212445	14.262823	0.543163	110.402457	110.402457	110.402457	4.226691	5.314689	2.830000	0.299503	0.198418	57.766144
46.195138	0.038254	0.231465	0.234605	100.400541	14.899096	0.539500	109.406135	109.406135	109.406135	4.211227	5.846858	2.830000	0.284293	0.189944	58.070531
46.860558	0.039349	0.234658	0.237934	100.586494	15.604455	0.535733	108.399295	108.399295	108.399295	4.194686	6.434774	2.830000	0.269619	0.181358	58.310022
47.535562	0.040475	0.237891	0.241310	100.770249	16.389779	0.531860	107.382106	107.382106	107.382106	4.177042	7.083161	2.830000	0.255524	0.172669	58.471904
48.220290	0.041633	0.241164	0.244731	100.951749	17.268206	0.527881	106.354752	106.354752	106.354752	4.158269	7.796527	2.830000	0.242052	0.163885	58.540604
48.914880	0.042823	0.244478	0.248200	101.130937	18.255699	0.523795	105.317438	105.317438	105.317438	4.138344	8.578866	2.830000	0.229244	0.155020	58.496872
49.619476	0.044047	0.247832	0.251716	101.307758	19.371755	0.519603	104.270385	104.270385	104.270385	4.117244	9.433257	2.830000	0.217144	0.146089	58.316674
50.334221	0.045306	0.251227	0.255280	101.482157	20.640306	0.515304	103.213832	103.213832	103.213832	4.094951	10.361347	2.830000	0.205795	0.137110	57.969694
51.059262	0.046600	0.254664	0.258893	101.654080	22.090802	0.510897	102.148037	102.148037	102.148037	4.071449	11.362709	2.830000	0.195236	0.128108	57.417284
51.794747	0.047930	0.258143	0.262555	101.823474	23.759473	0.506384	101.073275	101.073275	101.073275	4.046725	12.434101	2.830000	0.185510	0.119110	56.609635
52.540826	0.049298	0.261663	0.266266	101.990288	25.690594	0.501766	99.989837	99.989837	99.989837	4.020767	13.568653	2.830000	0.176655	0.110157	55.481883
53.297652	0.050703	0.265225	0.270028	102.154472	27.937336	0.497042	98.898035	98.898035	98.898035	3.993570	14.755077	2.830000	0.168710	0.101298	53.948813
54.065379	0.052149	0.268830	0.273842	102.315977	30.561045	0.492214	97.798194	97.798194	97.798194	3.965129	15.977030	2.830000	0.161710	0.092602	51.897836
54.844166	0.053634	0.272478	0.277706	102.474756	33.626311	0.487284	96.690660	96.690660	96.690660	3.935444	17.212785	2.830000	0.155689	0.084160	49.180365
55.634170	0.055161	0.276168	0.281623	102.630765	37.186066	0.482253	95.575792	95.575792	95.575792	3.904519	18.435435	2.830000	0.150681	0.076104	45.603132
56.435554	0.056731	0.279902	0.285593	102.783962	41.245542	0.477123	94.453964	94.453964	94.453964	3.872362	19.613782	2.830000	0.146713	0.068613	40.925001
57.248482	0.058345	0.283678	0.289616	102.934306	45.688134	0.471897	93.325568	93.325568	93.325568	3.838983	20.714017	2.830000	0.143814	0.061942	34.874096
58.073119	0.060003	0.287499	0.293693	103.081760	50.154543	0.466576	92.191007	92.191007	92.191007	3.804399	21.702132	2.830000	0.142006	0.056426	27.215337
58.909635	0.061708	0.291362	0.297825	103.226288	53.930755	0.461164	91.050697	91.050697	91.050697	3.768629	22.546799	2.830000	0.141312	0.052475	17.904069
59.758201	0.063460	0.295270	0.302012	103.367859	56.043315	0.455663	89.905068	89.905068	89.905068	3.731696	23.222310	2.830000	0.141747	0.050497	7.299647
60.618990	0.065260	0.299221	0.306255	103.506443	55.758651	0.450077	88.754558	88.754558	88.754558	3.693628	23.711031	2.830000	0.143327	0.050754	-3.753014
61.492178	0.067110	0.303216	0.310554	103.642015	53.156537	0.444409	87.599617	87.599617	87.599617	3.654456	24.004932	2.830000	0.146061	0.053239	-14.202171
62.377944	0.069012	0.307255	0.314910	103.774550	49.065332	0.438664	86.440703	86.440703	86.440703	3.614216	24.105902	2.830000	0.149957	0.057678	-23.265033
63.276469	0.070966	0.311339	0.319324	103.904030	44.446458	0.432844	85.278279	85.278279	85.278279	3.572946	24.024872	2.830000	0.155016	0.063672	-30.651805
64.187937	0.072974	0.315466	0.323796	104.030437	39.955731	0.426955	84.112816	84.112816	84.112816	3.530690	23.779991	2.830000	0.161238	0.070828	-36.447557
65.112534	0.075037	0.319638	0.328328	104.153759	35.901318	0.421001	82.944789	82.944789	82.944789	3.487493	23.394280	2.830000	0.168617	0.078827	-40.899926
66.050449	0.077156	0.323854	0.332918	104.273986	32.368937	0.414986	81.774675	81.774675	81.774675	3.443405	22.893206	2.830000	0.177144	0.087430	-44.279000
67.001875	0.079334	0.328114	0.337569	104.391111	29.337814	0.408916	80.602953	80.602953	80.602953	3.398478	22.302530	2.830000	0.186806	0.096463	-46.819456
67.967006	0.081572	0.332418	0.342280	104.505133	26.748112	0.402795	79.430100	79.430100	79.430100	3.352766	21.646632	2.830000	0.197587	0.105802	-48.707819
68.946038	0.083871	0.336766	0.347053	104.616050	24.532596	0.396628	78.256594	78.256594	78.256594	3.306328	20.947403	2.830000	0.209464	0.115357	-50.087057
69.939174	0.086233	0.341158	0.351887	104.723869	22.629203	0.390421	77.082909	77.082909	77.082909	3.259222	20.223642	2.830000	0.222414	0.125060	-51.065467
70.946615	0.088659	0.345593	0.356784	104.828596	20.984857	0.384179	75.909514	75.909514	75.909514	3.211510	19.490872	2.830000	0.236408	0.134859	-51.725105
71.968567	0.091151	0.350072	0.361744	104.930241	19.555670	0.377908	74.736872	74.736872	74.736872	3.163255	18.761449	2.830000	0.251416	0.144715	-52.128549
73.005241	0.093710	0.354595	0.366768	105.028819	18.305874	0.371612	73.565439	73.565439	73.565439	3.114520	18.044856	2.830000	0.267401	0.154595	-52.323974
74.056847	0.096339	0.359160	0.371856	105.124347	17.206452	0.365298	72.395663	72.395663	72.395663	3.065372	17.348085	2.830000	0.284327	0.164473	-52.348868
75.123601	0.099039	0.363768	0.377009	105.216844	16.233857	0.358971	71.227981	71.227981	71.227981	3.015873	16.676046	2.830000	0.302152	0.174327	-52.232733
76.205721	0.101812	0.368419	0.382228	105.306335	15.368911	0.352636	70.062820	70.062820	70.062820	2.966091	16.031966	2.830000	0.320835	0.184138	-51.999039
77.303429	0.104659	0.373111	0.387512	105.392844	14.595919	0.346299	68.900593	68.900593	68.900593	2.916090	15.417738	2.830000	0.340328	0.193890	-51.666662
78.416948	0.107583	0.377845	0.392863	105.476399	13.901960	0.339965	67.741701	67.741701	67.741701	2.865935	14.834233	2.830000	0.360586	0.203568	-51.250935
79.546508	0.110585	0.382620	0.398281	105.557033	13.276335	0.333640	66.586532	66.586532	66.586532	2.815691	14.281554	2.830000	0.381559	0.213161	-50.764437
80.692338	0.113668	0.387436	0.403766	105.634777	12.710124	0.327329	65.435457	65.435457	65.435457	2.765418	13.759241	2.830000	0.403197	0.222657	-50.217574
81.854673	0.116832	0.392292	0.409320	105.709666	12.195848	0.321037	64.288832	64.288832	64.288832	2.715181	13.266438	2.830000	0.425448	0.232046	-49.619034
83.033751	0.120081	0.397187	0.414942	105.781738	11.727198	0.314769	63.146996	63.146996	63.146996	2.665037	12.802021	2.830000	0.448260	0.241319	-48.976120
84.229813	0.123416	0.402121	0.420634	105.851032	11.298820	0.308530	62.010274	62.010274	62.010274	2.615046	12.364694	2.830000	0.471579	0.250469	-48.295021
85.443104	0.126839	0.407092	0.426395	105.917588	10.906146	0.302324	60.878969	60.878969	60.878969	2.565262	11.953066	2.830000	0.495352	0.259487	-47.581014
86.673872	0.130352	0.412101	0.432226	105.981447	10.545259	0.296157	59.753370	59.753370	59.753370	2.515741	11.565703	2.830000	0.519526	0.268367	-46.838624
87.922369	0.133958	0.417147	0.438128	106.042652	10.212781	0.290032	58.633746	58.633746	58.633746	2.466533	11.201170	2.830000	0.544047	0.277104	-46.071758
89.188849	0.137658	0.422227	0.444101	106.101248	9.905787	0.283954	57.520349	57.520349	57.520349	2.417688	10.858057	2.830000	0.568862	0.285692	-45.283800
90.473572	0.141454	0.427342	0.450145	106.157278	9.621733	0.277927	56.413412	56.413412	56.413412	2.369250	10.535000	2.830000	0.593920	0.294126	-44.477701
91.776802	0.145350	0.432490	0.456261	106.210789	9.358394	0.271954	55.313151	55.313151	55.313151	2.321265	10.230692	2.830000	0.619168	0.302402	-43.656041
93.098803	0.149346	0.437670	0.462449	106.261826	9.113821	0.266040	54.219762	54.219762	54.219762	2.273772	9.943892	2.830000	0.644556	0.310517	-42.821085
94.439848	0.153446	0.442881	0.468710	106.310434	8.886295	0.260187	53.133425	53.133425	53.133425	2.226810	9.673430	2.830000	0.670035	0.318468	-41.974828
95.800210	0.157651	0.448122	0.475044	106.356661	8.674299	0.254398	52.054301	52.054301	52.054301	2.180414	9.418205	2.830000	0.695556	0.326251	-41.119034
97.180167	0.161964	0.453391	0.481452	106.400552	8.476487	0.248678	50.982535	50.982535	50.982535	2.134615	9.177187	2.830000	0.721074	0.333865	-40.255263
98.580001	0.166388	0.458686	0.487932	106.442154	8.291661	0.243027	49.918252	49.918252	49.918252	2.089444	8.949416	2.830000	0.746543	0.341307	-39.384901
100.000000	0.170924	0.464007	0.494487	106.481511	8.118752	0.237449	48.861564	48.861564	48.861564	2.044926	8.733995	2.830000	0.771921	0.348576	-38.509181
101.440453	0.175575	0.469351	0.501116	106.518670	7.956805	0.231946	47.812566	47.812566	47.812566	2.001086	8.530093	2.830000	0.797164	0.355670	-37.629199
102.901655	0.180343	0.474717	0.507819	106.553674	7.804960	0.226521	46.771334	46.771334	46.771334	1.957945	8.336936	2.830000	0.822234	0.362590	-36.745933
104.383905	0.185232	0.480103	0.514596	106.586568	7.662445	0.221174	45.737934	45.737934	45.737934	1.915521	8.153807	2.830000	0.847092	0.369334	-35.860256
105.887506	0.190242	0.485506	0.521448	106.617395	7.528565	0.215908	44.712414	44.712414	44.712414	1.873831	7.980041	2.830000	0.871703	0.375902	-34.972946
107.412766	0.195377	0.490926	0.528375	106.646197	7.402688	0.210724	43.694808	43.694808	43.694808	1.832888	7.815021	2.830000	0.896033	0.382294	-34.084698
108.959997	0.200640	0.496359	0.535377	106.673015	7.284245	0.205623	42.685138	42.685138	42.685138	1.792703	7.658173	2.830000	0.920048	0.388510	-33.196131
110.529514	0.206031	0.501803	0.542453	106.697890	7.172717	0.200607	41.683413	41.683413	41.683413	1.753285	7.508968	2.830000	0.943720	0.394551	-32.307799
112.121640	0.211555	0.507257	0.549604	106.720860	7.067633	0.195676	40.689630	40.689630	40.689630	1.714642	7.366913	2.830000	0.967019	0.400417	-31.420193
113.736699	0.217214	0.512716	0.556830	106.741963	6.968563	0.190831	39.703772	39.703772	39.703772	1.676778	7.231551	2.830000	0.989918	0.406110	-30.533750
115.375023	0.223010	0.518180	0.564131	106.761237	6.875114	0.186074	38.725814	38.725814	38.725814	1.639697	7.102458	2.830000	1.012394	0.411630	-29.648860
117.036946	0.228945	0.523644	0.571506	106.778716	6.786929	0.181403	37.755720	37.755720	37.755720	1.603399	6.979240	2.830000	1.034422	0.416978	-28.765866
118.722808	0.235022	0.529106	0.578955	106.794434	6.703677	0.176819	36.793444	36.793444	36.793444	1.567884	6.861529	2.830000	1.055983	0.422156	-27.885072
120.432955	0.241244	0.534563	0.586478	106.808423	6.625057	0.172323	35.838929	35.838929	35.838929	1.533151	6.748987	2.830000	1.077056	0.427166	-27.006746
122.167735	0.247613	0.540012	0.594075	106.820715	6.550791	0.167915	34.892114	34.892114	34.892114	1.499196	6.641295	2.830000	1.097623	0.432009	-26.131122
123.927504	0.254131	0.545449	0.601745	106.831339	6.480625	0.163594	33.952924	33.952924	33.952924	1.466015	6.538157	2.830000	1.117668	0.436686	-25.258403
125.712621	0.260801	0.550870	0.609488	106.840324	6.414323	0.159360	33.021283	33.021283	33.021283	1.433601	6.439299	2.830000	1.137177	0.441200	-24.388767
127.523453	0.267625	0.556273	0.617303	106.847695	6.351669	0.155213	32.097103	32.097103	32.097103	1.401948	6.344462	2.830000	1.156136	0.445552	-23.522365
129.360368	0.274606	0.561653	0.625190	106.853478	6.292461	0.151152	31.180292	31.180292	31.180292	1.371048	6.253407	2.830000	1.174534	0.449745	-22.659327
131.223743	0.281745	0.567007	0.633148	106.857697	6.236514	0.147177	30.270753	30.270753	30.270753	1.340892	6.165909	2.830000	1.192359	0.453779	-21.799762
133.113960	0.289045	0.572329	0.641177	106.860374	6.183657	0.143288	29.368381	29.368381	29.368381	1.311471	6.081758	2.830000	1.209602	0.457658	-20.943761
135.031404	0.296508	0.577616	0.649275	106.861528	6.133732	0.139482	28.473069	28.473069	28.473069	1.282774	6.000757	2.830000	1.226256	0.461383	-20.091396
136.976468	0.304137	0.582863	0.657441	106.861179	6.086590	0.135761	27.584704	27.584704	27.584704	1.254790	5.922721	2.830000	1.242313	0.464957	-19.242725
138.949549	0.311933	0.588066	0.665676	106.859345	6.042095	0.132122	26.703168	26.703168	26.703168	1.227508	5.847477	2.830000	1.257767	0.468381	-18.397794
140.951052	0.319899	0.593219	0.673977	106.856041	6.000120	0.128565	25.828343	25.828343	25.828343	1.200916	5.774862	2.830000	1.272614	0.471657	-17.556634
142.981386	0.328035	0.598318	0.682343	106.851281	5.960548	0.125089	24.960103	24.960103	24.960103	1.175002	5.704723	2.830000	1.286850	0.474789	-16.719264
145.040966	0.336345	0.603358	0.690774	106.845079	5.923267	0.121693	24.098324	24.098324	24.098324	1.149752	5.636916	2.830000	1.300471	0.477777	-15.885696
147.130213	0.344829	0.608332	0.699267	106.837445	5.888177	0.118376	23.242875	23.242875	23.242875	1.125154	5.571305	2.830000	1.313476	0.480624	-15.055930
149.249555	0.353490	0.613235	0.707822	106.828391	5.855181	0.115137	22.393626	22.393626	22.393626	1.101195	5.507761	2.830000	1.325862	0.483333	-14.229958
151.399424	0.362328	0.618062	0.716437	106.817923	5.824192	0.111974	21.550444	21.550444	21.550444	1.077861	5.446164	2.830000	1.337630	0.485904	-13.407767
153.580262	0.371345	0.622806	0.725110	106.806049	5.795127	0.108887	20.713194	20.713194	20.713194	1.055139	5.386399	2.830000	1.348779	0.488341	-12.589335
155.792513	0.380542	0.627462	0.733839	106.792774	5.767909	0.105874	19.881741	19.881741	19.881741	1.033015	5.328357	2.830000	1.359310	0.490646	-11.774635
158.036631	0.389920	0.632021	0.742623	106.778103	5.742466	0.102933	19.055947	19.055947	19.055947	1.011476	5.271936	2.830000	1.369224	0.492820	-10.963635
160.313075	0.399480	0.636479	0.751459	106.762038	5.718731	0.100065	18.235674	18.235674	18.235674	0.990507	5.217039	2.830000	1.378523	0.494865	-10.156298
162.622309	0.409223	0.640828	0.760345	106.744580	5.696643	0.097267	17.420784	17.420784	17.420784	0.970096	5.163572	2.830000	1.387210	0.496784	-9.352584
164.964807	0.419149	0.645062	0.769279	106.725728	5.676142	0.094538	16.611137	16.611137	16.611137	0.950230	5.111448	2.830000	1.395286	0.498578	-8.552449
167.341048	0.429257	0.649172	0.778258	106.705482	5.657175	0.091878	15.806594	15.806594	15.806594	0.930893	5.060582	2.830000	1.402756	0.500250	-7.755847
169.751517	0.439549	0.653151	0.787280	106.683838	5.639691	0.089283	15.007015	15.007015	15.007015	0.912074	5.010895	2.830000	1.409623	0.501801	-6.962728
172.196708	0.450024	0.656992	0.796342	106.660792	5.623643	0.086755	14.212262	14.212262	14.212262	0.893760	4.962311	2.830000	1.415890	0.503233	-6.173042
174.677121	0.460681	0.660687	0.805440	106.636338	5.608987	0.084290	13.422193	13.422193	13.422193	0.875936	4.914756	2.830000	1.421563	0.504547	-5.386735
177.193263	0.471519	0.664227	0.814573	106.610469	5.595682	0.081889	12.636671	12.636671	12.636671	0.858591	4.868161	2.830000	1.426647	0.505747	-4.603755
179.745648	0.482538	0.667606	0.823736	106.583177	5.583690	0.079548	11.855556	11.855556	11.855556	0.841711	4.822459	2.830000	1.431145	0.506833	-3.824048
182.334800	0.493736	0.670813	0.832926	106.554451	5.572976	0.077268	11.078710	11.078710	11.078710	0.825286	4.777585	2.830000	1.435063	0.507808	-3.047557
184.961247	0.505111	0.673840	0.842139	106.524281	5.563507	0.075048	10.305994	10.305994	10.305994	0.809301	4.733479	2.830000	1.438408	0.508672	-2.274228
187.625527	0.516662	0.676680	0.851372	106.492654	5.555251	0.072884	9.537273	9.537273	9.537273	0.793745	4.690081	2.830000	1.441184	0.509428	-1.504006
190.328185	0.528385	0.679322	0.860621	106.459557	5.548182	0.070778	8.772408	8.772408	8.772408	0.778607	4.647334	2.830000	1.443398	0.510077	-0.736835
193.069773	0.540277	0.681757	0.869881	106.424974	5.542272	0.068726	8.011265	8.011265	8.011265	0.763875	4.605183	2.830000	1.445057	0.510621	0.027337
195.850852	0.552337	0.683977	0.879148	106.388890	5.537498	0.066729	7.253709	7.253709	7.253709	0.749538	4.563575	2.830000	1.446166	0.511061	0.788566
198.671992	0.564559	0.685971	0.888417	106.351286	5.533837	0.064784	6.499605	6.499605	6.499605	0.735584	4.522460	2.830000	1.446732	0.511399	1.546903
201.533769	0.576940	0.687731	0.897683	106.312143	5.531268	0.062891	5.748821	5.748821	5.748821	0.722004	4.481787	2.830000	1.446763	0.511637	2.302400
204.436768	0.589476	0.689247	0.906942	106.271441	5.529773	0.061049	5.001224	5.001224	5.001224	0.708786	4.441510	2.830000	1.446265	0.511775	3.055108
207.381584	0.602160	0.690509	0.916187	106.229158	5.529335	0.059255	4.256683	4.256683	4.256683	0.695920	4.401580	2.830000	1.445245	0.511816	3.805074
210.368818	0.614988	0.691507	0.925414	106.185272	5.529936	0.057510	3.515069	3.515069	3.515069	0.683396	4.361955	2.830000	1.443712	0.511760	4.552347
213.399082	0.627953	0.692231	0.934616	106.139759	5.531565	0.055812	2.776251	2.776251	2.776251	0.671205	4.322589	2.830000	1.441671	0.511609	5.296971
216.472995	0.641048	0.692671	0.943788	106.092591	5.534206	0.054160	2.040102	2.040102	2.040102	0.659336	4.283441	2.830000	1.439132	0.511365	6.038991
219.591187	0.654268	0.692819	0.952924	106.043743	5.537849	0.052552	1.306496	1.306496	1.306496	0.647780	4.244468	2.830000	1.436102	0.511029	6.778447
222.754295	0.667602	0.692662	0.962015	105.993186	5.542484	0.050988	0.575306	0.575306	0.575306	0.636529	4.205632	2.830000	1.432589	0.510601	7.515381
225.962966	0.681044	0.692193	0.971057	105.940890	5.548100	0.049467	-0.153592	-0.153592	-0.153592	0.625574	4.166894	2.830000	1.428601	0.510085	8.249829
229.217857	0.694583	0.691401	0.980041	105.886824	5.554691	0.047987	-0.880322	-0.880322	-0.880322	0.614905	4.128214	2.830000	1.424146	0.509479	8.981827
232.519632	0.708211	0.690276	0.988961	105.830956	5.562250	0.046548	-1.605004	-1.605004	-1.605004	0.604514	4.089556	2.830000	1.419234	0.508787	9.711408
235.868968	0.721917	0.688809	0.997809	105.773252	5.570770	0.045149	-2.327760	-2.327760	-2.327760	0.594393	4.050884	2.830000	1.413871	0.508009	10.438602
239.266550	0.735689	0.686991	1.006576	105.713675	5.580247	0.043788	-3.048710	-3.048710	-3.048710	0.584534	4.012163	2.830000	1.408067	0.507146	11.163439
242.713072	0.749516	0.684813	1.015255	105.652190	5.590677	0.042464	-3.767970	-3.767970	-3.767970	0.574929	3.973358	2.830000	1.401831	0.506200	11.885944
246.209240	0.763385	0.682265	1.023837	105.588758	5.602057	0.041177	-4.485658	-4.485658	-4.485658	0.565570	3.934436	2.830000	1.395172	0.505172	12.606140
249.755769	0.777283	0.679339	1.032313	105.523339	5.614386	0.039926	-5.201889	-5.201889	-5.201889	0.556450	3.895365	2.830000	1.388098	0.504062	13.324049
253.353383	0.791196	0.676028	1.040675	105.455892	5.627662	0.038710	-5.916776	-5.916776	-5.916776	0.547561	3.856113	2.830000	1.380619	0.502873	14.039688
257.002820	0.805109	0.672322	1.048913	105.386374	5.641886	0.037528	-6.630430	-6.630430	-6.630430	0.538896	3.816649	2.830000	1.372744	0.501605	14.753074
260.704825	0.819007	0.668216	1.057017	105.314740	5.657057	0.036378	-7.342961	-7.342961	-7.342961	0.530447	3.776943	2.830000	1.364483	0.500260	15.464219
264.460155	0.832873	0.663702	1.064977	105.240945	5.673177	0.035261	-8.054477	-8.054477	-8.054477	0.522208	3.736967	2.830000	1.355844	0.498839	16.173134
268.269580	0.846690	0.658773	1.072784	105.164942	5.690250	0.034175	-8.765083	-8.765083	-8.765083	0.514172	3.696692	2.830000	1.346838	0.497342	16.879825
272.133877	0.860441	0.653425	1.080427	105.086681	5.708277	0.033120	-9.474883	-9.474883	-9.474883	0.506332	3.656092	2.830000	1.337474	0.495771	17.584299
276.053838	0.874106	0.647652	1.087895	105.006111	5.727263	0.032094	-10.183978	-10.183978	-10.183978	0.498681	3.615141	2.830000	1.327762	0.494128	18.286557
280.030263	0.887667	0.641451	1.095177	104.923181	5.747212	0.031098	-10.892467	-10.892467	-10.892467	0.491212	3.573813	2.830000	1.317713	0.492413	18.986598
284.063968	0.901104	0.634818	1.102262	104.837837	5.768129	0.030129	-11.600444	-11.600444	-11.600444	0.483919	3.532085	2.830000	1.307335	0.490627	19.684419
288.155776	0.914395	0.627750	1.109139	104.750023	5.790021	0.029188	-12.308002	-12.308002	-12.308002	0.476796	3.489935	2.830000	1.296640	0.488772	20.380013
292.306525	0.927520	0.620246	1.115795	104.659682	5.812895	0.028274	-13.015230	-13.015230	-13.015230	0.469835	3.447341	2.830000	1.285637	0.486849	21.073371
296.517063	0.940455	0.612306	1.122219	104.566756	5.836757	0.027385	-13.722214	-13.722214	-13.722214	0.463030	3.404284	2.830000	1.274337	0.484858	21.764480
300.788252	0.953180	0.603931	1.128399	104.471184	5.861615	0.026522	-14.429035	-14.429035	-14.429035	0.456375	3.360745	2.830000	1.262750	0.482802	22.453326
305.120965	0.965669	0.595122	1.134322	104.372906	5.887479	0.025684	-15.135770	-15.135770	-15.135770	0.449863	3.316706	2.830000	1.250887	0.480681	23.139891
309.516090	0.977899	0.585883	1.139976	104.271858	5.914358	0.024869	-15.842491	-15.842491	-15.842491	0.443489	3.272154	2.830000	1.238758	0.478497	23.824153
313.974523	0.989847	0.576218	1.145349	104.167976	5.942261	0.024078	-16.549266	-16.549266	-16.549266	0.437244	3.227074	2.830000	1.226374	0.476250	24.506088
318.497179	1.001487	0.566134	1.150427	104.061194	5.971199	0.023309	-17.256156	-17.256156	-17.256156	0.431123	3.181455	2.830000	1.213746	0.473942	25.185669
323.084981	1.012793	0.555637	1.155198	103.951444	6.001184	0.022563	-17.963217	-17.963217	-17.963217	0.425119	3.135287	2.830000	1.200885	0.471574	25.862867
327.738869	1.023742	0.544737	1.159649	103.838659	6.032227	0.021838	-18.670498	-18.670498	-18.670498	0.419226	3.088562	2.830000	1.187802	0.469147	26.537648
332.459793	1.034308	0.533445	1.163768	103.722769	6.064341	0.021133	-19.378041	-19.378041	-19.378041	0.413437	3.041276	2.830000	1.174507	0.466662	27.209976
337.248720	1.044464	0.521773	1.167541	103.603705	6.097539	0.020450	-20.085882	-20.085882	-20.085882	0.407746	2.993426	2.830000	1.161011	0.464122	27.879811
342.106630	1.054185	0.509736	1.170955	103.481394	6.131834	0.019785	-20.794045	-20.794045	-20.794045	0.402145	2.945011	2.830000	1.147326	0.461526	28.547112
347.034515	1.063446	0.497349	1.173999	103.355765	6.167241	0.019141	-21.502549	-21.502549	-21.502549	0.396629	2.896034	2.830000	1.133463	0.458876	29.211832
352.033384	1.072223	0.484631	1.176660	103.226747	6.203774	0.018514	-22.211402	-22.211402	-22.211402	0.391189	2.846500	2.830000	1.119432	0.456174	29.873923
357.104260	1.080489	0.471603	1.178926	103.094266	6.241448	0.017906	-22.920602	-22.920602	-22.920602	0.385821	2.796418	2.830000	1.105246	0.453420	30.533334
362.248179	1.088222	0.458285	1.180784	102.958251	6.280280	0.017316	-23.630137	-23.630137	-23.630137	0.380516	2.745799	2.830000	1.090915	0.450617	31.190008
367.466194	1.095397	0.444702	1.182225	102.818631	6.320285	0.016743	-24.339982	-24.339982	-24.339982	0.375268	2.694658	2.830000	1.076450	0.447765	31.843888
372.759372	1.101993	0.430881	1.183236	102.675333	6.361480	0.016186	-25.050100	-25.050100	-25.050100	0.370071	2.643013	2.830000	1.061863	0.444865	32.494912
378.128796	1.107988	0.416849	1.183807	102.528290	6.403883	0.015646	-25.760444	-25.760444	-25.760444	0.364916	2.590886	2.830000	1.047165	0.441919	33.143016
383.575563	1.113361	0.402638	1.183930	102.377431	6.447511	0.015122	-26.470951	-26.470951	-26.470951	0.359799	2.538304	2.830000	1.032366	0.438929	33.788132
389.100789	1.118094	0.388279	1.183594	102.222692	6.492383	0.014613	-27.181544	-27.181544	-27.181544	0.354712	2.485295	2.830000	1.017480	0.435895	34.430190
394.705603	1.122170	0.373808	1.182792	102.064008	6.538516	0.014119	-27.892133	-27.892133	-27.892133	0.349647	2.431892	2.830000	1.002515	0.432820	35.069116
400.391152	1.125574	0.359260	1.181517	101.901320	6.585930	0.013639	-28.602611	-28.602611	-28.602611	0.344600	2.378134	2.830000	0.987484	0.429704	35.704832
406.158599	1.128291	0.344675	1.179764	101.734571	6.634645	0.013174	-29.312855	-29.312855	-29.312855	0.339564	2.324061	2.830000	0.972398	0.426549	36.337260
412.009123	1.130313	0.330093	1.177526	101.563709	6.684679	0.012723	-30.022727	-30.022727	-30.022727	0.334531	2.269719	2.830000	0.957267	0.423356	36.966318
417.943921	1.131630	0.315556	1.174802	101.388688	6.736052	0.012285	-30.732072	-30.732072	-30.732072	0.329497	2.215157	2.830000	0.942103	0.420127	37.591919
423.964207	1.132236	0.301107	1.171590	101.209468	6.788785	0.011860	-31.440718	-31.440718	-31.440718	0.324455	2.160430	2.830000	0.926917	0.416864	38.213977
430.071212	1.132129	0.286794	1.167890	101.026015	6.842899	0.011447	-32.148473	-32.148473	-32.148473	0.319401	2.105595	2.830000	0.911719	0.413567	38.832402
436.266186	1.131309	0.272661	1.163703	100.838306	6.898413	0.011048	-32.855132	-32.855132	-32.855132	0.314328	2.050714	2.830000	0.896520	0.410239	39.447102
442.550395	1.129781	0.258756	1.159034	100.646325	6.955348	0.010660	-33.560469	-33.560469	-33.560469	0.309233	1.995851	2.830000	0.881331	0.406881	40.057984
448.925126	1.127551	0.245129	1.153889	100.450066	7.013725	0.010284	-34.264241	-34.264241	-34.264241	0.304110	1.941075	2.830000	0.866161	0.403495	40.664951
455.391681	1.124632	0.231829	1.148278	100.249537	7.073565	0.009919	-34.966191	-34.966191	-34.966191	0.298956	1.886459	2.830000	0.851022	0.400081	41.267909
461.951385	1.121039	0.218905	1.142211	100.044757	7.134889	0.009566	-35.666041	-35.666041	-35.666041	0.293768	1.832077	2.830000	0.835923	0.396642	41.866758
468.605578	1.116790	0.206406	1.135704	99.835761	7.197717	0.009223	-36.363500	-36.363500	-36.363500	0.288543	1.778007	2.830000	0.820875	0.393180	42.461401
475.355621	1.111911	0.194383	1.128774	99.622597	7.262070	0.008891	-37.058260	-37.058260	-37.058260	0.283278	1.724329	2.830000	0.805887	0.389696	43.051739
482.202895	1.106428	0.182883	1.121441	99.405335	7.327969	0.008570	-37.749999	-37.749999	-37.749999	0.277972	1.671125	2.830000	0.790968	0.386192	43.637673
489.148802	1.100376	0.171954	1.113731	99.184058	7.395433	0.008258	-38.438383	-38.438383	-38.438383	0.272624	1.618478	2.830000	0.776128	0.382669	44.219107
496.194760	1.093792	0.161642	1.105671	98.958874	7.464485	0.007956	-39.123064	-39.123064	-39.123064	0.267235	1.566471	2.830000	0.761376	0.379129	44.795943
503.342213	1.086717	0.151990	1.097295	98.729909	7.535142	0.007664	-39.803685	-39.803685	-39.803685	0.261803	1.515189	2.830000	0.746721	0.375574	45.368085
510.592621	1.079199	0.143040	1.088638	98.497315	7.607425	0.007381	-40.479881	-40.479881	-40.479881	0.256332	1.464716	2.830000	0.732171	0.372005	45.935441
517.947468	1.071289	0.134830	1.079740	98.261267	7.681354	0.007108	-41.151279	-41.151279	-41.151279	0.250823	1.415133	2.830000	0.717735	0.368425	46.497919
525.408258	1.063042	0.127394	1.070648	98.021965	7.756946	0.006843	-41.817503	-41.817503	-41.817503	0.245278	1.366522	2.830000	0.703419	0.364834	47.055432
532.976517	1.054519	0.120764	1.061411	97.779637	7.834222	0.006586	-42.478175	-42.478175	-42.478175	0.239703	1.318961	2.830000	0.689233	0.361236	47.607894
540.653794	1.045783	0.114964	1.052083	97.534535	7.913198	0.006338	-43.132916	-43.132916	-43.132916	0.234101	1.272525	2.830000	0.675183	0.357630	48.155225
548.441658	1.036901	0.110017	1.042721	97.286942	7.993894	0.006099	-43.781351	-43.781351	-43.781351	0.228478	1.227287	2.830000	0.661275	0.354020	48.697349
556.341702	1.027946	0.105936	1.033390	97.037167	8.076326	0.005867	-44.423111	-44.423111	-44.423111	0.222840	1.183313	2.830000	0.647517	0.350407	49.234193
564.355543	1.018990	0.102732	1.024156	96.785545	8.160511	0.005643	-45.057837	-45.057837	-45.057837	0.217194	1.140665	2.830000	0.633915	0.346792	49.765692
572.484820	1.010110	0.100404	1.015088	96.532436	8.246466	0.005427	-45.685180	-45.685180	-45.685180	0.211547	1.099398	2.830000	0.620473	0.343177	50.291786
580.731195	1.001384	0.098950	1.006261	96.278226	8.334208	0.005218	-46.304807	-46.304807	-46.304807	0.205909	1.059563	2.830000	0.607198	0.339564	50.812419
589.096355	0.992891	0.098355	0.997751	96.023320	8.423752	0.005017	-46.916403	-46.916403	-46.916403	0.200288	1.021201	2.830000	0.594094	0.335955	51.327542
597.582011	0.984710	0.098600	0.989634	95.768140	8.515114	0.004822	-47.519675	-47.519675	-47.519675	0.194693	0.984347	2.830000	0.581166	0.332350	51.837116
606.189899	0.976920	0.099654	0.981989	95.513124	8.608309	0.004635	-48.114352	-48.114352	-48.114352	0.189134	0.949029	2.830000	0.568417	0.328752	52.341103
614.921780	0.969598	0.101481	0.974894	95.258715	8.703352	0.004454	-48.700193	-48.700193	-48.700193	0.183622	0.915264	2.830000	0.555852	0.325162	52.839477
623.779440	0.962819	0.104035	0.968424	95.005359	8.800260	0.004279	-49.276984	-49.276984	-49.276984	0.178167	0.883063	2.830000	0.543474	0.321581	53.332216
632.764690	0.956656	0.107260	0.962650	94.753497	8.899045	0.004111	-49.844547	-49.844547	-49.844547	0.172781	0.852427	2.830000	0.531284	0.318012	53.819307
641.879368	0.951174	0.111093	0.957640	94.503556	8.999723	0.003949	-50.402737	-50.402737	-50.402737	0.167473	0.823346	2.830000	0.519287	0.314454	54.300743
651.125339	0.946436	0.115462	0.953453	94.255943	9.102310	0.003793	-50.951448	-50.951448	-50.951448	0.162255	0.795806	2.830000	0.507483	0.310910	54.776525
660.504493	0.942497	0.120289	0.950142	94.011033	9.206819	0.003643	-51.490611	-51.490611	-51.490611	0.157137	0.769778	2.830000	0.495875	0.307381	55.246659
670.018750	0.939403	0.125485	0.947747	93.769164	9.313266	0.003498	-52.020200	-52.020200	-52.020200	0.152131	0.745229	2.830000	0.484463	0.303868	55.711159
679.670056	0.937192	0.130956	0.946297	93.530625	9.421666	0.003359	-52.540231	-52.540231	-52.540231	0.147246	0.722116	2.830000	0.473249	0.300372	56.170046
689.460384	0.935893	0.136604	0.945810	93.295650	9.532035	0.003225	-53.050763	-53.050763	-53.050763	0.142491	0.700388	2.830000	0.462233	0.296894	56.623346
699.391737	0.935522	0.142323	0.946286	93.064408	9.644389	0.003096	-53.551898	-53.551898	-53.551898	0.137876	0.679985	2.830000	0.451415	0.293435	57.071092
709.466146	0.936085	0.148004	0.947713	92.836999	9.758744	0.002973	-54.043782	-54.043782	-54.043782	0.133410	0.660842	2.830000	0.440795	0.289996	57.513322
719.685673	0.937573	0.153539	0.950062	92.613448	9.875117	0.002854	-54.526602	-54.526602	-54.526602	0.129099	0.642886	2.830000	0.430373	0.286579	57.950079
730.052407	0.939965	0.158814	0.953287	92.393704	9.993527	0.002740	-55.000590	-55.000590	-55.000590	0.124950	0.626040	2.830000	0.420148	0.283183	58.381409
740.568469	0.943226	0.163720	0.957329	92.177633	10.113991	0.002630	-55.466014	-55.466014	-55.466014	0.120968	0.610221	2.830000	0.410120	0.279810	58.807366
751.236010	0.947305	0.168148	0.962113	91.965024	10.236530	0.002524	-55.923182	-55.923182	-55.923182	0.117159	0.595342	2.830000	0.400286	0.276461	59.228003
762.057212	0.952139	0.171997	0.967550	91.755591	10.361162	0.002423	-56.372436	-56.372436	-56.372436	0.113524	0.581314	2.830000	0.390646	0.273135	59.643381
773.034288	0.957650	0.175170	0.973539	91.548973	10.487908	0.002326	-56.814148	-56.814148	-56.814148	0.110066	0.568044	2.830000	0.381198	0.269835	60.053559
784.169484	0.963745	0.177579	0.979968	91.344746	10.616792	0.002232	-57.248718	-57.248718	-57.248718	0.106786	0.555439	2.830000	0.371940	0.266559	60.458600
795.465078	0.970319	0.179150	0.986719	91.142427	10.747835	0.002143	-57.676567	-57.676567	-57.676567	0.103681	0.543408	2.830000	0.362870	0.263309	60.858570
806.923378	0.977257	0.179817	0.993663	90.941483	10.881062	0.002057	-58.098131	-58.098131	-58.098131	0.100750	0.531857	2.830000	0.353987	0.260085	61.253535
818.546731	0.984432	0.179535	1.000669	90.741343	11.016497	0.001974	-58.513860	-58.513860	-58.513860	0.097988	0.520699	2.830000	0.345288	0.256887	61.643559
830.337512	0.991709	0.178270	1.007605	90.541406	11.154168	0.001895	-58.924205	-58.924205	-58.924205	0.095390	0.509847	2.830000	0.336772	0.253717	62.028710
842.298134	0.998947	0.176013	1.014335	90.341055	11.294100	0.001818	-59.329613	-59.329613	-59.329613	0.092948	0.499219	2.830000	0.328434	0.250573	62.409053
854.431043	1.006002	0.172769	1.020730	90.139668	11.436323	0.001745	-59.730523	-59.730523	-59.730523	0.090655	0.488741	2.830000	0.320274	0.247457	62.784653
866.738721	1.012730	0.168567	1.026663	89.936627	11.580867	0.001675	-60.127356	-60.127356	-60.127356	0.088499	0.478344	2.830000	0.312289	0.244369	63.155573
879.223685	1.018987	0.163459	1.032015	89.731335	11.727761	0.001608	-60.520503	-60.520503	-60.520503	0.086469	0.467967	2.830000	0.304476	0.241308	63.521875
891.888489	1.024638	0.157516	1.036675	89.523220	11.877039	0.001543	-60.910327	-60.910327	-60.910327	0.084554	0.457558	2.830000	0.296832	0.238275	63.883619
904.735724	1.029557	0.150833	1.040547	89.311757	12.028731	0.001481	-61.297147	-61.297147	-61.297147	0.082739	0.447073	2.830000	0.289355	0.235270	64.240860
917.768017	1.033628	0.143523	1.043545	89.096468	12.182873	0.001422	-61.681233	-61.681233	-61.681233	0.081011	0.436481	2.830000	0.282043	0.232293	64.593654
930.988035	1.036756	0.135720	1.045602	88.876942	12.339499	0.001364	-62.062802	-62.062802	-62.062802	0.079354	0.425759	2.830000	0.274893	0.229345	64.942052
944.398480	1.038865	0.127574	1.046669	88.652843	12.498644	0.001309	-62.442011	-62.442011	-62.442011	0.077753	0.414898	2.830000	0.267903	0.226425	65.286103
958.002097	1.039900	0.119249	1.046715	88.423921	12.660345	0.001257	-62.818953	-62.818953	-62.818953	0.076194	0.403898	2.830000	0.261069	0.223533	65.625851
971.801667	1.039836	0.110918	1.045735	88.190020	12.824639	0.001206	-63.193652	-63.193652	-63.193652	0.074662	0.392769	2.830000	0.254389	0.220669	65.961339
985.800014	1.038674	0.102762	1.043745	87.951093	12.991562	0.001157	-63.566065	-63.566065	-63.566065	0.073143	0.381535	2.830000	0.247861	0.217834	66.292607
1000.000000	1.036447	0.094962	1.040788	87.707207	13.161155	0.001110	-63.936078	-63.936078	-63.936078	0.071623	0.370228	2.830000	0.241483	0.215027	66.619690
1014.404530	1.033217	0.087694	1.036932	87.458552	13.333453	0.001065	-64.303512	-64.303512	-64.303512	0.070091	0.358887	2.830000	0.235251	0.212248	66.942624
1029.016551	1.029081	0.081127	1.032274	87.205445	13.508497	0.001022	-64.668128	-64.668128	-64.668128	0.068537	0.347563	2.830000	0.229164	0.209498	67.261439
1043.839051	1.024162	0.075411	1.026934	86.948334	13.686325	0.000981	-65.029630	-65.029630	-65.029630	0.066954	0.336309	2.830000	0.223218	0.206776	67.576165
1058.875063	1.018613	0.070679	1.021062	86.687798	13.866975	0.000941	-65.387676	-65.387676	-65.387676	0.065336	0.325185	2.830000	0.217412	0.204082	67.886832
1074.127661	1.012612	0.067033	1.014828	86.424536	14.050487	0.000902	-65.741889	-65.741889	-65.741889	0.063679	0.314252	2.830000	0.211743	0.201417	68.193467
1089.599965	1.006356	0.064545	1.008424	86.159362	14.236898	0.000865	-66.091869	-66.091869	-66.091869	0.061984	0.303573	2.830000	0.206209	0.198779	68.496096
1105.295141	1.000057	0.063252	1.002055	85.893182	14.426249	0.000830	-66.437207	-66.437207	-66.437207	0.060252	0.293206	2.830000	0.200808	0.196170	68.794749
1121.216399	0.993935	0.063148	0.995939	85.626973	14.618576	0.000796	-66.777502	-66.777502	-66.777502	0.058489	0.283208	2.830000	0.195536	0.193589	69.089452
1137.366994	0.988209	0.064187	0.990291	85.361747	14.813918	0.000763	-67.112375	-67.112375	-67.112375	0.056703	0.273628	2.830000	0.190392	0.191037	69.380235
1153.750232	0.983091	0.066281	0.985323	85.098513	15.012314	0.000732	-67.441485	-67.441485	-67.441485	0.054902	0.264508	2.830000	0.185373	0.188512	69.667130
1170.369462	0.978775	0.069297	0.981225	84.838231	15.213802	0.000702	-67.764548	-67.764548	-67.764548	0.053098	0.255879	2.830000	0.180478	0.186015	69.950168
1187.228084	0.975431	0.073066	0.978164	84.581765	15.418420	0.000673	-68.081345	-68.081345	-68.081345	0.051306	0.247761	2.830000	0.175702	0.183547	70.229386
1204.329547	0.973193	0.077382	0.976264	84.329832	15.626206	0.000645	-68.391741	-68.391741	-68.391741	0.049538	0.240163	2.830000	0.171045	0.181106	70.504821
1221.677349	0.972153	0.082013	0.975606	84.082957	15.837200	0.000618	-68.695687	-68.695687	-68.695687	0.047811	0.233080	2.830000	0.166504	0.178693	70.776514
1239.275037	0.972355	0.086706	0.976213	83.841434	16.051442	0.000593	-68.993234	-68.993234	-68.993234	0.046138	0.226495	2.830000	0.162076	0.176308	71.044507
1257.126212	0.973791	0.091199	0.978052	83.605295	16.268970	0.000568	-69.284529	-69.284529	-69.284529	0.044534	0.220378	2.830000	0.157760	0.173951	71.308847
1275.234525	0.976395	0.095234	0.981028	83.374297	16.489826	0.000545	-69.569819	-69.569819	-69.569819	0.043010	0.214689	2.830000	0.153551	0.171621	71.569580
1293.603680	0.980044	0.098566	0.984989	83.147926	16.714053	0.000522	-69.849439	-69.849439	-69.849439	0.041577	0.209379	2.830000	0.149449	0.169319	71.826757
1312.237433	0.984564	0.100978	0.989729	82.925410	16.941692	0.000501	-70.123803	-70.123803	-70.123803	0.040243	0.204389	2.830000	0.145451	0.167044	72.080428
1331.139597	0.989731	0.102292	0.995003	82.705757	17.172788	0.000480	-70.393393	-70.393393	-70.393393	0.039013	0.199658	2.830000	0.141555	0.164796	72.330646
1350.314038	0.995282	0.102384	1.000534	82.487804	17.407388	0.000460	-70.658732	-70.658732	-70.658732	0.037886	0.195119	2.830000	0.137757	0.162575	72.577463
1369.764677	1.000925	0.101188	1.006027	82.270272	17.645537	0.000441	-70.920368	-70.920368	-70.920368	0.036862	0.190710	2.830000	0.134057	0.160380	72.820931
1389.495494	1.006357	0.098709	1.011187	82.051836	17.887285	0.000423	-71.178844	-71.178844	-71.178844	0.035934	0.186368	2.830000	0.130451	0.158213	73.061102
1409.510524	1.011277	0.095024	1.015732	81.831193	18.132681	0.000405	-71.434674	-71.434674	-71.434674	0.035092	0.182040	2.830000	0.126937	0.156072	73.298027
1429.813862	1.015404	0.090281	1.019409	81.607135	18.381778	0.000389	-71.688317	-71.688317	-71.688317	0.034324	0.177678	2.830000	0.123513	0.153957	73.531753
1450.409659	1.018495	0.084695	1.022011	81.378616	18.634629	0.000373	-71.940147	-71.940147	-71.940147	0.033615	0.173249	2.830000	0.120178	0.151868	73.762327
1471.302129	1.020365	0.078541	1.023383	81.144818	18.891286	0.000357	-72.190439	-72.190439	-72.190439	0.032948	0.168732	2.830000	0.116928	0.149805	73.989793
1492.495545	1.020896	0.072137	1.023442	80.905202	19.151807	0.000343	-72.439346	-72.439346	-72.439346	0.032304	0.164118	2.830000	0.113762	0.147767	74.214192
1513.994242	1.020057	0.065827	1.022179	80.659561	19.416247	0.000328	-72.686891	-72.686891	-72.686891	0.031666	0.159414	2.830000	0.110679	0.145754	74.435562
1535.802619	1.017902	0.059959	1.019667	80.408046	19.684663	0.000315	-72.932965	-72.932965	-72.932965	0.031018	0.154641	2.830000	0.107675	0.143767	74.653939
1557.925134	1.014580	0.054865	1.016062	80.151185	19.957113	0.000302	-73.177330	-73.177330	-73.177330	0.030345	0.149831	2.830000	0.104749	0.141804	74.869356
1580.366314	1.010321	0.050831	1.011599	79.889877	20.233655	0.000289	-73.419642	-73.419642	-73.419642	0.029637	0.145027	2.830000	0.101900	0.139866	75.081844
1603.130749	1.005434	0.048075	1.006583	79.625361	20.514347	0.000277	-73.659464	-73.659464	-73.659464	0.028885	0.140278	2.830000	0.099125	0.137952	75.291433
1626.223094	1.000280	0.046731	1.001371	79.359153	20.799248	0.000266	-73.896309	-73.896309	-73.896309	0.028089	0.135635	2.830000	0.096423	0.136063	75.498151
1649.648074	0.995252	0.046827	0.996353	79.092956	21.088415	0.000255	-74.129671	-74.129671	-74.129671	0.027251	0.131149	2.830000	0.093792	0.134197	75.702027
1673.410480	0.990743	0.048283	0.991919	78.828534	21.381909	0.000244	-74.359069	-74.359069	-74.359069	0.026378	0.126868	2.830000	0.091230	0.132355	75.903089
1697.515172	0.987117	0.050906	0.988429	78.567569	21.679786	0.000234	-74.584089	-74.584089	-74.584089	0.025483	0.122826	2.830000	0.088736	0.130536	76.101368
1721.967081	0.984675	0.054403	0.986176	78.311496	21.982106	0.000224	-74.804423	-74.804423	-74.804423	0.024580	0.119051	2.830000	0.086308	0.128741	76.296893
1746.771208	0.983623	0.058397	0.985355	78.061354	22.288929	0.000215	-75.019898	-75.019898	-75.019898	0.023687	0.115552	2.830000	0.083945	0.126969	76.489698
1771.932627	0.984054	0.062462	0.986035	77.817655	22.600313	0.000206	-75.230503	-75.230503	-75.230503	0.022822	0.112324	2.830000	0.081644	0.125220	76.679816
1797.456484	0.985928	0.066150	0.988145	77.580302	22.916321	0.000197	-75.436393	-75.436393	-75.436393	0.022003	0.109349	2.830000	0.079405	0.123493	76.867285
1823.348001	0.989070	0.069039	0.991476	77.348567	23.237013	0.000189	-75.637885	-75.637885	-75.637885	0.021244	0.106592	2.830000	0.077226	0.121788	77.052142
1849.612473	0.993177	0.070773	0.995695	77.121140	23.562453	0.000181	-75.835438	-75.835438	-75.835438	0.020557	0.104011	2.830000	0.075105	0.120106	77.234425
1876.255272	0.997844	0.071099	1.000374	76.896247	23.892706	0.000174	-76.029612	-76.029612	-76.029612	0.019947	0.101553	2.830000	0.073041	0.118446	77.414176
1903.281848	1.002597	0.069903	1.005031	76.671817	24.227840	0.000167	-76.221021	-76.221021	-76.221021	0.019413	0.099165	2.830000	0.071032	0.116808	77.591433
1930.697729	1.006942	0.067227	1.009183	76.445691	24.567923	0.000160	-76.410280	-76.410280	-76.410280	0.018950	0.096798	2.830000	0.069078	0.115191	77.766235
1958.508523	1.010410	0.063273	1.012389	76.215848	24.913024	0.000153	-76.597938	-76.597938	-76.597938	0.018546	0.094408	2.830000	0.067175	0.113595	77.938622
1986.719919	1.012620	0.058394	1.014303	75.980624	25.263218	0.000147	-76.784425	-76.784425	-76.784425	0.018184	0.091966	2.830000	0.065324	0.112021	78.108628
2015.337686	1.013322	0.053057	1.014710	75.738900	25.618577	0.000140	-76.970004	-76.970004	-76.970004	0.017845	0.089454	2.830000	0.063522	0.110467	78.276289
2044.367679	1.012435	0.047797	1.013563	75.490253	25.979177	0.000135	-77.154739	-77.154739	-77.154739	0.017508	0.086874	2.830000	0.061769	0.108933	78.441635
2073.815835	1.010067	0.043158	1.010989	75.235045	26.345095	0.000129	-77.338490	-77.338490	-77.338490	0.017154	0.084242	2.830000	0.060063	0.107420	78.604696
2103.688178	1.006513	0.039621	1.007292	74.974431	26.716406	0.000124	-77.520921	-77.520921	-77.520921	0.016768	0.081590	2.830000	0.058404	0.105927	78.765498
2133.990819	1.002226	0.037544	1.002929	74.710275	27.093189	0.000119	-77.701550	-77.701550	-77.701550	0.016341	0.078959	2.830000	0.056789	0.104454	78.924069
2164.729954	0.997769	0.037104	0.998459	74.444968	27.475521	0.000114	-77.879805	-77.879805	-77.879805	0.015869	0.076393	2.830000	0.055218	0.103001	79.080431
2195.911873	0.993743	0.038262	0.994480	74.181144	27.863481	0.000109	-78.055101	-78.055101	-78.055101	0.015358	0.073937	2.830000	0.053689	0.101567	79.234610
2227.542952	0.990707	0.040760	0.991545	73.921322	28.257147	0.000104	-78.226930	-78.226930	-78.226930	0.014819	0.071627	2.830000	0.052202	0.100152	79.386631
2259.629662	0.989092	0.044141	0.990077	73.667518	28.656597	0.000100	-78.394934	-78.394934	-78.394934	0.014270	0.069487	2.830000	0.050756	0.098756	79.536519
2292.178566	0.989135	0.047810	0.990290	73.420891	29.061911	0.000096	-78.558966	-78.558966	-78.558966	0.013732	0.067522	2.830000	0.049349	0.097378	79.684301
2325.196322	0.990826	0.051110	0.992144	73.181501	29.473169	0.000092	-78.719122	-78.719122	-78.719122	0.013224	0.065724	2.830000	0.047980	0.096020	79.830006
2358.689683	0.993902	0.053427	0.995337	72.948244	29.890453	0.000088	-78.875739	-78.875739	-78.875739	0.012764	0.064065	2.830000	0.046649	0.094679	79.973665
2392.665500	0.997869	0.054287	0.999344	72.718978	30.313848	0.000084	-79.029352	-79.029352	-79.029352	0.012365	0.062505	2.830000	0.045354	0.093357	80.115309
2427.130723	1.002072	0.053447	1.003497	72.490856	30.743437	0.000081	-79.180618	-79.180618	-79.180618	0.012029	0.061001	2.830000	0.044095	0.092052	80.254969
2462.092401	1.005802	0.050943	1.007091	72.260782	31.179310	0.000077	-79.330217	-79.330217	-79.330217	0.011752	0.059506	2.830000	0.042870	0.090765	80.392677
2497.557686	1.008408	0.047106	1.009508	72.025935	31.621557	0.000074	-79.478740	-79.478740	-79.478740	0.011520	0.057986	2.830000	0.041678	0.089496	80.528463
2533.533832	1.009427	0.042515	1.010322	71.784270	32.070270	0.000071	-79.626589	-79.626589	-79.626589	0.011314	0.056416	2.830000	0.040519	0.088244	80.662355
2570.028197	1.008672	0.037905	1.009384	71.534912	32.525543	0.000068	-79.773904	-79.773904	-79.773904	0.011111	0.054792	2.830000	0.039392	0.087009	80.794380
2607.048246	1.006289	0.034037	1.006864	71.278374	32.987471	0.000065	-79.920537	-79.920537	-79.920537	0.010890	0.053128	2.830000	0.038296	0.085790	80.924563
2644.601552	1.002744	0.031550	1.003241	71.016553	33.456150	0.000062	-80.066076	-80.066076	-80.066076	0.010635	0.051452	2.830000	0.037230	0.084588	81.052925
2682.695795	0.998751	0.030825	0.999227	70.752452	33.931678	0.000060	-80.209923	-80.209923	-80.209923	0.010337	0.049803	2.830000	0.036193	0.083403	81.179490
2721.338768	0.995133	0.031890	0.995644	70.489651	34.414152	0.000057	-80.351423	-80.351423	-80.351423	0.010000	0.048222	2.830000	0.035184	0.082234	81.304277
2760.538375	0.992657	0.034399	0.993252	70.231576	34.903669	0.000055	-80.489995	-80.489995	-80.489995	0.009636	0.046743	2.830000	0.034204	0.081080	81.427307
2800.302634	0.991861	0.037680	0.992576	69.980709	35.400328	0.000053	-80.625274	-80.625274	-80.625274	0.009265	0.045385	2.830000	0.033250	0.079943	81.548603
2840.639679	0.992921	0.040875	0.993762	69.737943	35.904228	0.000050	-80.757194	-80.757194	-80.757194	0.008909	0.044149	2.830000	0.032323	0.078821	81.668188
2881.557759	0.995590	0.043121	0.996523	69.502272	36.415471	0.000048	-80.886024	-80.886024	-80.886024	0.008591	0.043017	2.830000	0.031421	0.077714	81.786087
2923.065245	0.999230	0.043762	1.000188	69.270949	36.934160	0.000046	-81.012317	-81.012317	-81.012317	0.008323	0.041956	2.830000	0.030545	0.076623	81.902324
2965.170628	1.002952	0.042516	1.003853	69.040099	37.460399	0.000044	-81.136788	-81.136788	-81.136788	0.008110	0.040926	2.830000	0.029692	0.075546	82.016927
3007.882518	1.005821	0.039571	1.006599	68.805659	37.994297	0.000043	-81.260153	-81.260153	-81.260153	0.007943	0.039889	2.830000	0.028863	0.074485	82.129921
3051.209653	1.007098	0.035559	1.007726	68.564397	38.535964	0.000041	-81.382954	-81.382954	-81.382954	0.007806	0.038818	2.830000	0.028057	0.073438	82.241329
3095.160895	1.006446	0.031415	1.006937	68.314787	39.085514	0.000039	-81.505413	-81.505413	-81.505413	0.007673	0.037703	2.830000	0.027273	0.072405	82.351176
3139.745234	1.004049	0.028136	1.004443	68.057494	39.643060	0.000037	-81.627378	-81.627378	-81.627378	0.007521	0.036556	2.830000	0.026511	0.071387	82.459482
3184.971790	1.000582	0.026505	1.000933	67.795323	40.208718	0.000036	-81.748360	-81.748360	-81.748360	0.007334	0.035404	2.830000	0.025770	0.070383	82.566267
3230.849813	0.997049	0.026851	0.997410	67.532573	40.782604	0.000034	-81.867666	-81.867666	-81.867666	0.007107	0.034284	2.830000	0.025050	0.069392	82.671548
3277.388687	0.994500	0.028926	0.994920	67.273859	41.364836	0.000033	-81.984610	-81.984610	-81.984610	0.006849	0.033230	2.830000	0.024349	0.068416	82.775343
3324.597932	0.993710	0.031951	0.994224	67.022693	41.955531	0.000032	-82.098721	-82.098721	-82.098721	0.006580	0.032266	2.830000	0.023668	0.067452	82.877672
3372.487204	0.994924	0.034830	0.995534	66.780271	42.554808	0.000030	-82.209901	-82.209901	-82.209901	0.006323	0.031392	2.830000	0.023006	0.066502	82.978554
3421.066299	0.997745	0.036487	0.998412	66.544939	43.162787	0.000029	-82.318477	-82.318477	-82.318477	0.006102	0.030592	2.830000	0.022362	0.065566	83.078011
3470.345152	1.001232	0.036227	1.001887	66.312624	43.779592	0.000028	-82.425107	-82.425107	-82.425107	0.005928	0.029834	2.830000	0.021736	0.064642	83.176064
3520.333844	1.004193	0.033994	1.004769	66.078145	44.405350	0.000027	-82.530577	-82.530577	-82.530577	0.005800	0.029080	2.830000	0.021128	0.063731	83.272736
3571.042600	1.005591	0.030425	1.006051	65.836976	45.040188	0.000025	-82.635540	-82.635540	-82.635540	0.005702	0.028302	2.830000	0.020536	0.062833	83.368047
3622.481792	1.004925	0.026658	1.005278	65.586875	45.684238	0.000024	-82.740290	-82.740290	-82.740290	0.005610	0.027488	2.830000	0.019961	0.061947	83.462017
3674.661941	1.002448	0.023933	1.002733	65.328808	46.337635	0.000023	-82.844651	-82.844651	-82.844651	0.005497	0.026648	2.830000	0.019402	0.061073	83.554665
3727.593720	0.999110	0.023129	0.999378	65.066771	47.000513	0.000022	-82.948041	-82.948041	-82.948041	0.005349	0.025811	2.830000	0.018858	0.060212	83.646007
3781.287957	0.996222	0.024396	0.996521	64.806442	47.673007	0.000021	-83.049694	-83.049694	-83.049694	0.005165	0.025010	2.830000	0.018330	0.059363	83.736059
3835.755635	0.994948	0.027053	0.995316	64.552980	48.355254	0.000021	-83.148970	-83.148970	-83.148970	0.004960	0.024273	2.830000	0.017816	0.058525	83.824838
3891.007893	0.995809	0.029831	0.996256	64.308809	49.047393	0.000020	-83.245623	-83.245623	-83.245623	0.004762	0.023607	2.830000	0.017317	0.057699	83.912360
3947.056035	0.998432	0.031380	0.998925	64.072395	49.749563	0.000019	-83.339925	-83.339925	-83.339925	0.004593	0.023002	2.830000	0.016831	0.056885	83.998643
4003.911523	1.001664	0.030855	1.002139	63.838742	50.461906	0.000018	-83.432566	-83.432566	-83.432566	0.004467	0.022426	2.830000	0.016359	0.056082	84.083707
4061.585988	1.004046	0.028330	1.004446	63.601520	51.184569	0.000017	-83.524372	-83.524372	-83.524372	0.004381	0.021846	2.830000	0.015900	0.055290	84.167570
4120.091227	1.004482	0.024806	1.004788	63.355920	51.917700	0.000017	-83.615935	-83.615935	-83.615935	0.004314	0.021241	2.830000	0.015454	0.054509	84.250251
4179.439206	1.002769	0.021785	1.003006	63.100963	52.661452	0.000016	-83.707343	-83.707343	-83.707343	0.004239	0.020608	2.830000	0.015021	0.053739	84.331766
4239.642065	0.999755	0.020564	0.999966	62.840173	53.415977	0.000015	-83.798133	-83.798133	-83.798133	0.004133	0.019967	2.830000	0.014599	0.052980	84.412131
4300.712118	0.996956	0.021569	0.997189	62.580092	54.181430	0.000015	-83.887519	-83.887519	-83.887519	0.003993	0.019349	2.830000	0.014190	0.052232	84.491360
4362.661857	0.995817	0.024089	0.996108	62.327087	54.957967	0.000014	-83.974789	-83.974789	-83.974789	0.003832	0.018782	2.830000	0.013792	0.051494	84.569467
4425.503952	0.996934	0.026596	0.997289	62.083908	55.745746	0.000013	-84.059693	-84.059693	-84.059693	0.003678	0.018272	2.830000	0.013404	0.050766	84.646468
4489.251258	0.999690	0.027537	1.000070	61.847951	56.544927	0.000013	-84.142592	-84.142592	-84.142592	0.003554	0.017805	2.830000	0.013028	0.050049	84.722379
4553.916814	1.002534	0.026201	1.002877	61.612495	57.355671	0.000012	-84.224284	-84.224284	-84.224284	0.003471	0.017353	2.830000	0.012662	0.049341	84.797215
4619.513847	1.003829	0.023175	1.004097	61.370414	58.178145	0.000012	-84.305570	-84.305570	-84.305570	0.003416	0.016886	2.830000	0.012307	0.048644	84.870995
4686.055775	1.002817	0.020061	1.003018	61.118332	59.012519	0.000011	-84.386799	-84.386799	-84.386799	0.003363	0.016394	2.830000	0.011961	0.047956	84.943733
4753.556208	1.000124	0.018552	1.000296	60.858818	59.858965	0.000011	-84.467658	-84.467658	-84.467658	0.003286	0.015890	2.830000	0.011625	0.047278	85.015444
4822.028953	0.997438	0.019383	0.997626	60.599125	60.717658	0.000010	-84.547362	-84.547362	-84.547362	0.003176	0.015400	2.830000	0.011299	0.046609	85.086140
4891.488015	0.996481	0.021806	0.996719	60.346822	61.588771	0.000010	-84.625149	-84.625149	-84.625149	0.003045	0.014951	2.830000	0.010981	0.045950	85.155835
4961.947603	0.997874	0.024013	0.998163	60.104761	62.472481	0.000010	-84.700784	-84.700784	-84.700784	0.002923	0.014549	2.830000	0.010673	0.045300	85.224542
5033.422128	1.000663	0.024305	1.000958	59.868870	63.368969	0.000009	-84.774739	-84.774739	-84.774739	0.002832	0.014178	2.830000	0.010373	0.044659	85.292276
5105.926210	1.002902	0.022278	1.003149	59.630704	64.278417	0.000009	-84.847892	-84.847892	-84.847892	0.002778	0.013810	2.830000	0.010081	0.044027	85.359051
5179.474679	1.002996	0.019180	1.003180	59.383295	65.201011	0.000008	-84.920931	-84.920931	-84.920931	0.002739	0.013422	2.830000	0.009798	0.043404	85.424882
5254.082580	1.000889	0.017072	1.001035	59.126266	66.136943	0.000008	-84.993863	-84.993863	-84.993863	0.002687	0.013017	2.830000	0.009523	0.042790	85.489783
5329.765172	0.998180	0.017316	0.998331	58.866436	67.086405	0.000008	-85.066007	-85.066007	-85.066007	0.002604	0.012616	2.830000	0.009255	0.042184	85.553766
5406.537936	0.996967	0.019489	0.997157	58.612963	68.049590	0.000007	-85.136511	-85.136511	-85.136511	0.002497	0.012245	2.830000	0.008995	0.041587	85.616842
5484.416576	0.998202	0.021629	0.998436	58.370145	69.026694	0.000007	-85.205026	-85.205026	-85.205026	0.002394	0.011914	2.830000	0.008742	0.040999	85.679023
5563.417021	1.000864	0.021767	1.001100	58.133626	70.017916	0.000007	-85.272006	-85.272006	-85.272006	0.002322	0.011609	2.830000	0.008496	0.040418	85.740323
5643.555431	1.002715	0.019572	1.002906	57.893696	71.023458	0.000006	-85.338361	-85.338361	-85.338361	0.002282	0.011302	2.830000	0.008257	0.039846	85.800756
5724.848197	1.002171	0.016713	1.002310	57.643411	72.043528	0.000006	-85.404705	-85.404705	-85.404705	0.002251	0.010978	2.830000	0.008025	0.039282	85.860333
5807.311946	0.999729	0.015483	0.999849	57.384780	73.078334	0.000006	-85.470831	-85.470831	-85.470831	0.002199	0.010643	2.830000	0.007799	0.038726	85.919068
5890.963548	0.997614	0.016744	0.997754	57.127391	74.128090	0.000006	-85.535893	-85.535893	-85.535893	0.002118	0.010321	2.830000	0.007580	0.038177	85.976971
5975.820111	0.997788	0.019067	0.997970	56.879892	75.193009	0.000005	-85.599181	-85.599181	-85.599181	0.002027	0.010031	2.830000	0.007367	0.037636	86.034052
6061.898993	1.000067	0.019984	1.000267	56.641618	76.273307	0.000005	-85.660804	-85.660804	-85.660804	0.001956	0.009770	2.830000	0.007159	0.037103	86.090324
6149.217802	1.002204	0.018364	1.002372	56.402835	77.369206	0.000005	-85.721610	-85.721610	-85.721610	0.001918	0.009515	2.830000	0.006958	0.036578	86.145799
6237.794396	1.002054	0.015606	1.002175	56.154180	78.480929	0.000005	-85.782370	-85.782370	-85.782370	0.001893	0.009246	2.830000	0.006762	0.036060	86.200489
6327.646895	0.999791	0.014311	0.999893	55.896269	79.608706	0.000005	-85.843006	-85.843006	-85.843006	0.001851	0.008965	2.830000	0.006572	0.035549	86.254404
6418.793677	0.997826	0.015580	0.997948	55.639492	80.752767	0.000004	-85.902676	-85.902676	-85.902676	0.001782	0.008695	2.830000	0.006387	0.035045	86.307556
6511.253386	0.998289	0.017756	0.998447	55.393216	81.913347	0.000004	-85.960672	-85.960672	-85.960672	0.001705	0.008454	2.830000	0.006207	0.034549	86.359953
6605.044933	1.000640	0.018150	1.000805	55.155231	83.090680	0.000004	-86.017215	-86.017215	-86.017215	0.001650	0.008235	2.830000	0.006033	0.034059	86.411607
6700.187504	1.002179	0.016065	1.002308	54.913817	84.285009	0.000004	-86.073228	-86.073228	-86.073228	0.001624	0.008015	2.830000	0.005863	0.033577	86.462530
6796.700558	1.001111	0.013702	1.001205	54.661107	85.496577	0.000004	-86.129298	-86.129298	-86.129298	0.001601	0.007781	2.830000	0.005698	0.033101	86.512731
6894.603838	0.998747	0.013631	0.998840	54.402633	86.725634	0.000004	-86.184988	-86.184988	-86.184988	0.001554	0.007544	2.830000	0.005538	0.032632	86.562221
6993.917368	0.998009	0.015643	0.998132	54.151117	87.972431	0.000003	-86.239369	-86.239369	-86.239369	0.001487	0.007325	2.830000	0.005382	0.032169	86.611010
7094.661463	0.999812	0.016901	0.999955	53.910678	89.237222	0.000003	-86.292186	-86.292186	-86.292186	0.001430	0.007132	2.830000	0.005230	0.031713	86.659106
7196.856730	1.001794	0.015508	1.001914	53.671116	90.520265	0.000003	-86.344203	-86.344203	-86.344203	0.001402	0.006944	2.830000	0.005083	0.031264	86.706520
7300.524071	1.001323	0.013062	1.001408	53.420956	91.821823	0.000003	-86.396228	-86.396228	-86.396228	0.001385	0.006745	2.830000	0.004940	0.030821	86.753262
7405.684692	0.999070	0.012618	0.999150	53.162955	93.142164	0.000003	-86.448046	-86.448046	-86.448046	0.001348	0.006541	2.830000	0.004801	0.030384	86.799343
7512.360102	0.998196	0.014483	0.998301	52.910828	94.481557	0.000003	-86.498721	-86.498721	-86.498721	0.001290	0.006350	2.830000	0.004666	0.029953	86.844769
7620.572122	0.999931	0.015675	1.000054	52.670069	95.840275	0.000003	-86.547918	-86.547918	-86.547918	0.001240	0.006182	2.830000	0.004534	0.029528	86.889551
7730.342884	1.001702	0.014167	1.001803	52.429566	97.218596	0.000003	-86.596410	-86.596410	-86.596410	0.001218	0.006018	2.830000	0.004407	0.029110	86.933698
7841.694843	1.000855	0.011961	1.000926	52.177723	98.616802	0.000002	-86.644956	-86.644956	-86.644956	0.001202	0.005844	2.830000	0.004283	0.028697	86.977220
7954.650775	0.998726	0.012156	0.998800	51.920204	100.035181	0.000002	-86.693167	-86.693167	-86.693167	0.001165	0.005667	2.830000	0.004162	0.028290	87.020124
8069.233784	0.998683	0.014109	0.998782	51.671662	101.474022	0.000002	-86.740121	-86.740121	-86.740121	0.001112	0.005507	2.830000	0.004045	0.027889	87.062420
8185.467307	1.000762	0.014346	1.000865	51.432411	102.933618	0.000002	-86.785835	-86.785835	-86.785835	0.001077	0.005363	2.830000	0.003931	0.027493	87.104115
8303.375120	1.001504	0.012196	1.001578	51.187435	104.414268	0.000002	-86.831260	-86.831260	-86.831260	0.001064	0.005215	2.830000	0.003820	0.027104	87.145220
8422.981339	0.999678	0.011016	0.999738	50.931269	105.916276	0.000002	-86.876715	-86.876715	-86.876715	0.001043	0.005059	2.830000	0.003713	0.026719	87.185742
8544.310429	0.998481	0.012517	0.998559	50.677718	107.439949	0.000002	-86.921361	-86.921361	-86.921361	0.000999	0.004911	2.830000	0.003608	0.026340	87.225689
8667.387209	1.000018	0.013684	1.000112	50.436062	108.985598	0.000002	-86.964674	-86.964674	-86.964674	0.000960	0.004779	2.830000	0.003506	0.025967	87.265069
8792.236851	1.001461	0.012095	1.001534	50.194083	110.553538	0.000002	-87.007398	-87.007398	-87.007398	0.000945	0.004651	2.830000	0.003408	0.025598	87.303890
8918.884894	1.000140	0.010420	1.000195	49.940114	112.144092	0.000002	-87.050203	-87.050203	-87.050203	0.000930	0.004514	2.830000	0.003312	0.025235	87.342162
9047.357242	0.998609	0.011509	0.998675	49.685111	113.757585	0.000002	-87.092451	-87.092451	-87.092451	0.000894	0.004380	2.830000	0.003218	0.024877	87.379890
9177.680175	0.999835	0.012873	0.999918	49.442080	115.394346	0.000002	-87.133434	-87.133434	-87.133434	0.000856	0.004262	2.830000	0.003128	0.024525	87.417083
9309.880348	1.001336	0.011479	1.001402	49.200331	117.054711	0.000001	-87.173771	-87.173771	-87.173771	0.000842	0.004148	2.830000	0.003040	0.024177	87.453748
9443.984802	1.000069	0.009874	1.000118	48.946571	118.739017	0.000001	-87.214185	-87.214185	-87.214185	0.000829	0.004026	2.830000	0.002954	0.023834	87.489893
9580.020968	0.998714	0.011049	0.998775	48.692319	120.447612	0.000001	-87.254045	-87.254045	-87.254045	0.000796	0.003907	2.830000	0.002871	0.023496	87.525526
9718.016671	1.000136	0.012123	1.000210	48.450138	122.180844	0.000001	-87.292706	-87.292706	-87.292706	0.000764	0.003802	2.830000	0.002790	0.023162	87.560653
9858.000137	1.001201	0.010442	1.001256	48.206487	123.939066	0.000001	-87.330901	-87.330901	-87.330901	0.000754	0.003699	2.830000	0.002711	0.022834	87.595281
10000.000000	0.999569	0.009438	0.999613	47.951102	125.722640	0.000001	-87.369150	-87.369150	-87.369150	0.000739	0.003589	2.830000	0.002635	0.022510	87.629419
10144.045304	0.998982	0.011012	0.999043	47.700165	127.531930	0.000001	-87.406628	-87.406628	-87.406628	0.000706	0.003486	2.830000	0.002561	0.022191	87.663072
10290.165513	1.000763	0.011134	1.000825	47.459557	129.367306	0.000001	-87.443064	-87.443064	-87.443064	0.000684	0.003393	2.830000	0.002489	0.021876	87.696247
10438.390514	1.000670	0.009210	1.000712	47.210873	131.229142	0.000001	-87.479382	-87.479382	-87.479382	0.000677	0.003298	2.830000	0.002418	0.021565	87.728952
10588.750628	0.998977	0.009554	0.999023	46.955166	133.117821	0.000001	-87.515519	-87.515519	-87.515519	0.000655	0.003199	2.830000	0.002350	0.021259	87.761193
10741.276608	0.999865	0.010910	0.999925	46.710634	135.033729	0.000001	-87.550610	-87.550610	-87.550610	0.000626	0.003112	2.830000	0.002284	0.020958	87.792976
10895.999653	1.001045	0.009517	1.001090	46.467449	136.977257	0.000001	-87.585145	-87.585145	-87.585145	0.000617	0.003028	2.830000	0.002220	0.020660	87.824308
11052.951411	0.999512	0.008642	0.999549	46.212464	138.948803	0.000001	-87.619733	-87.619733	-87.619733	0.000604	0.002938	2.830000	0.002157	0.020367	87.855196
11212.163986	0.999321	0.010177	0.999372	45.963233	140.948770	0.000001	-87.653565	-87.653565	-87.653565	0.000576	0.002854	2.830000	0.002096	0.020078	87.885645
11373.669943	1.000932	0.009636	1.000978	45.721886	142.977567	0.000001	-87.686565	-87.686565	-87.686565	0.000563	0.002778	2.830000	0.002037	0.019793	87.915662
11537.502317	0.999954	0.008184	0.999988	45.469325	145.035609	0.000001	-87.719595	-87.719595	-87.719595	0.000555	0.002697	2.830000	0.001980	0.019512	87.945253
11703.694619	0.999155	0.009466	0.999200	45.217451	147.123318	0.000001	-87.752122	-87.752122	-87.752122	0.000531	0.002619	2.830000	0.001924	0.019236	87.974425
11872.280844	1.000753	0.009448	1.000798	44.976027	149.241120	0.000001	-87.783740	-87.783740	-87.783740	0.000515	0.002549	2.830000	0.001870	0.018963	88.003182
12043.295474	1.000127	0.007868	1.000158	44.724988	151.389448	0.000001	-87.815319	-87.815319	-87.815319	0.000509	0.002476	2.830000	0.001817	0.018694	88.031531
12216.773490	0.999171	0.008979	0.999211	44.472430	153.568742	0.000001	-87.846509	-87.846509	-87.846509	0.000488	0.002404	2.830000	0.001766	0.018428	88.059478
12392.750375	1.000701	0.009047	1.000742	44.230702	155.779448	0.000001	-87.876812	-87.876812	-87.876812	0.000473	0.002340	2.830000	0.001716	0.018167	88.087028
12571.262124	1.000051	0.007549	1.000080	43.979547	158.022017	0.000001	-87.907069	-87.907069	-87.907069	0.000467	0.002272	2.830000	0.001668	0.017909	88.114188
12752.345251	0.999287	0.008723	0.999325	43.727819	160.296909	0.000001	-87.936916	-87.936916	-87.936916	0.000447	0.002206	2.830000	0.001621	0.017655	88.140962
12936.036796	1.000762	0.008467	1.000798	43.485856	162.604589	0.000001	-87.965957	-87.965957	-87.965957	0.000435	0.002147	2.830000	0.001575	0.017404	88.167355
13122.374331	0.999763	0.007284	0.999790	43.233168	164.945528	0.000001	-87.995003	-87.995003	-87.995003	0.000429	0.002085	2.830000	0.001531	0.017157	88.193375
13311.395971	0.999580	0.008600	0.999617	42.983956	167.320207	0.000000	-88.023501	-88.023501	-88.023501	0.000409	0.002026	2.830000	0.001488	0.016914	88.219025
13503.140379	1.000757	0.007689	1.000786	42.740704	169.729109	0.000000	-88.051371	-88.051371	-88.051371	0.000402	0.001971	2.830000	0.001446	0.016674	88.244310
13697.646775	0.999388	0.007275	0.999415	42.486385	172.172729	0.000000	-88.079257	-88.079257	-88.079257	0.000392	0.001913	2.830000	0.001405	0.016437	88.269237
13894.954944	1.000136	0.008326	1.000171	42.241222	174.651566	0.000000	-88.106410	-88.106410	-88.106410	0.000375	0.001860	2.830000	0.001365	0.016204	88.293811
14095.105244	1.000372	0.006878	1.000396	41.993892	177.166126	0.000000	-88.133258	-88.133258	-88.133258	0.000371	0.001808	2.830000	0.001327	0.015974	88.318035
14298.138616	0.999333	0.007619	0.999362	41.740971	179.716925	0.000000	-88.159923	-88.159923	-88.159923	0.000356	0.001755	2.830000	0.001289	0.015747	88.341916
14504.096588	1.000654	0.007505	1.000682	41.498316	182.304484	0.000000	-88.185848	-88.185848	-88.185848	0.000346	0.001708	2.830000	0.001253	0.015523	88.365457
14713.021288	0.999607	0.006631	0.999629	41.245394	184.929332	0.000000	-88.211762	-88.211762	-88.211762	0.000340	0.001658	2.830000	0.001218	0.015303	88.388665
14924.955451	1.000023	0.007739	1.000052	40.998780	187.592007	0.000000	-88.237092	-88.237092	-88.237092	0.000325	0.001612	2.830000	0.001183	0.015086	88.411543
15139.942425	1.000320	0.006415	1.000340	40.751702	190.293052	0.000000	-88.262078	-88.262078	-88.262078	0.000322	0.001567	2.830000	0.001150	0.014872	88.434096
15358.026185	0.999457	0.007205	0.999483	40.499540	193.033020	0.000000	-88.286878	-88.286878	-88.286878	0.000308	0.001521	2.830000	0.001118	0.014661	88.456329
15579.251340	1.000619	0.006740	1.000642	40.256196	195.812473	0.000000	-88.311038	-88.311038	-88.311038	0.000301	0.001480	2.830000	0.001086	0.014453	88.478247
15803.663140	0.999434	0.006465	0.999455	40.002656	198.631977	0.000000	-88.335183	-88.335183	-88.335183	0.000294	0.001437	2.830000	0.001056	0.014247	88.499853
16031.307485	1.000427	0.007003	1.000452	39.758554	201.492111	0.000000	-88.358685	-88.358685	-88.358685	0.000282	0.001398	2.830000	0.001026	0.014045	88.521153
16262.230941	0.999750	0.005971	0.999768	39.507233	204.393459	0.000000	-88.382081	-88.382081	-88.382081	0.000279	0.001357	2.830000	0.000997	0.013846	88.542150
16496.480741	1.000071	0.006969	1.000096	39.260202	207.336614	0.000000	-88.405011	-88.405011	-88.405011	0.000266	0.001320	2.830000	0.000969	0.013649	88.562849
16734.104799	1.000084	0.005762	1.000101	39.011876	210.322179	0.000000	-88.427655	-88.427655	-88.427655	0.000263	0.001282	2.830000	0.000941	0.013456	88.583255
16975.151720	0.999794	0.006728	0.999816	38.762187	213.350763	0.000000	-88.450019	-88.450019	-88.450019	0.000251	0.001246	2.830000	0.000915	0.013265	88.603371
17219.670809	1.000294	0.005689	1.000310	38.515971	216.422988	0.000000	-88.471962	-88.471962	-88.471962	0.000248	0.001211	2.830000	0.000889	0.013076	88.623201
17467.712080	0.999650	0.006435	0.999671	38.264751	219.539481	0.000000	-88.493740	-88.493740	-88.493740	0.000238	0.001176	2.830000	0.000864	0.012891	88.642749
17719.326270	1.000382	0.005622	1.000398	38.019535	222.700879	0.000000	-88.515036	-88.515036	-88.515036	0.000234	0.001144	2.830000	0.000840	0.012708	88.662021
17974.564843	0.999605	0.006185	0.999624	37.767740	225.907829	0.000000	-88.536216	-88.536216	-88.536216	0.000225	0.001111	2.830000	0.000816	0.012527	88.681018
18233.480009	1.000393	0.005501	1.000408	37.522759	229.160987	0.000000	-88.556905	-88.556905	-88.556905	0.000221	0.001080	2.830000	0.000793	0.012349	88.699746
18496.124725	0.999623	0.006007	0.999641	37.270993	232.461019	0.000000	-88.577487	-88.577487	-88.577487	0.000212	0.001049	2.830000	0.000771	0.012174	88.718208
18762.552716	1.000348	0.005316	1.000362	37.025742	235.808599	0.000000	-88.597600	-88.597600	-88.597600	0.000209	0.001020	2.830000	0.000749	0.012001	88.736408
19032.818477	0.999697	0.005896	0.999714	36.774488	239.204413	0.000000	-88.617588	-88.617588	-88.617588	0.000200	0.000991	2.830000	0.000728	0.011831	88.754350
19306.977289	1.000238	0.005090	1.000251	36.528435	242.649155	0.000000	-88.637155	-88.637155	-88.637155	0.000198	0.000964	2.830000	0.000707	0.011663	88.772037
19585.085230	0.999850	0.005808	0.999867	36.278322	246.143529	0.000000	-88.656550	-88.656550	-88.656550	0.000189	0.000936	2.830000	0.000687	0.011497	88.789472
19867.199185	1.000038	0.004888	1.000050	36.030735	249.688250	0.000000	-88.675605	-88.675605	-88.675605	0.000187	0.000910	2.830000	0.000668	0.011334	88.806661
20000.000000	0.999574	0.005257	0.999588	35.912994	251.356877	0.000000	-88.684449	-88.684449	-88.684449	0.000183	0.000897	2.830000	0.000659	0.011259	88.814584
