Freq (hertz)	Ra (norm)	Xa (norm)	Za (norm)	SPL (dB)	Ze (ohms)	Xd (mm) 	WPhase (deg)	UPhase (deg)	CPhase (deg)	Delay (msec)	Efficiency (%)	Ein (volts)	Pin (watts)	Iin (amps)	ZePhase (deg)

10.000000	0.000117	0.012973	0.012974	29.448036	2.664419	1.688854	-12.781121	-12.781121	-12.781121	3.621791	0.000419	2.830000	2.946946	1.062145	11.363529
10.144045	0.000120	0.013160	0.013161	29.952907	2.666367	1.688948	-12.969016	-12.969016	-12.969016	3.624982	0.000445	2.830000	2.943064	1.061369	11.529828
10.290166	0.000124	0.013350	0.013350	30.458014	2.668376	1.689043	-13.159788	-13.159788	-13.159788	3.628270	0.000472	2.830000	2.939067	1.060570	11.698638
10.438391	0.000127	0.013542	0.013543	30.963367	2.670448	1.689142	-13.353486	-13.353486	-13.353486	3.631661	0.000501	2.830000	2.934954	1.059747	11.870001
10.588751	0.000131	0.013737	0.013738	31.468972	2.672587	1.689243	-13.550160	-13.550160	-13.550160	3.635156	0.000532	2.830000	2.930721	1.058899	12.043959
10.741277	0.000135	0.013935	0.013935	31.974836	2.674792	1.689348	-13.749863	-13.749863	-13.749863	3.638761	0.000565	2.830000	2.926365	1.058026	12.220555
10.896000	0.000139	0.014136	0.014136	32.480969	2.677069	1.689455	-13.952646	-13.952646	-13.952646	3.642478	0.000600	2.830000	2.921881	1.057126	12.399833
11.052951	0.000143	0.014339	0.014340	32.987378	2.679417	1.689564	-14.158563	-14.158563	-14.158563	3.646310	0.000637	2.830000	2.917266	1.056200	12.581838
11.212164	0.000147	0.014546	0.014546	33.494071	2.681841	1.689677	-14.367670	-14.367670	-14.367670	3.650263	0.000677	2.830000	2.912516	1.055245	12.766616
11.373670	0.000151	0.014755	0.014756	34.001058	2.684343	1.689793	-14.580022	-14.580022	-14.580022	3.654340	0.000719	2.830000	2.907628	1.054262	12.954213
11.537502	0.000155	0.014968	0.014968	34.508348	2.686925	1.689912	-14.795677	-14.795677	-14.795677	3.658545	0.000763	2.830000	2.902596	1.053249	13.144677
11.703695	0.000160	0.015183	0.015184	35.015949	2.689590	1.690035	-15.014694	-15.014694	-15.014694	3.662883	0.000811	2.830000	2.897418	1.052205	13.338057
11.872281	0.000165	0.015402	0.015403	35.523872	2.692342	1.690160	-15.237133	-15.237133	-15.237133	3.667358	0.000861	2.830000	2.892088	1.051129	13.534403
12.043295	0.000169	0.015624	0.015625	36.032127	2.695183	1.690289	-15.463057	-15.463057	-15.463057	3.671975	0.000915	2.830000	2.886602	1.050021	13.733766
12.216773	0.000174	0.015849	0.015850	36.540724	2.698117	1.690422	-15.692527	-15.692527	-15.692527	3.676738	0.000972	2.830000	2.880955	1.048880	13.936197
12.392750	0.000179	0.016077	0.016078	37.049673	2.701147	1.690558	-15.925610	-15.925610	-15.925610	3.681653	0.001033	2.830000	2.875144	1.047703	14.141750
12.571262	0.000185	0.016308	0.016309	37.558986	2.704276	1.690698	-16.162371	-16.162371	-16.162371	3.686726	0.001098	2.830000	2.869162	1.046491	14.350478
12.752345	0.000190	0.016543	0.016544	38.068674	2.707508	1.690841	-16.402878	-16.402878	-16.402878	3.691961	0.001167	2.830000	2.863005	1.045242	14.562438
12.936037	0.000195	0.016782	0.016783	38.578749	2.710846	1.690988	-16.647201	-16.647201	-16.647201	3.697365	0.001240	2.830000	2.856668	1.043954	14.777686
13.122374	0.000201	0.017023	0.017024	39.089223	2.714296	1.691139	-16.895412	-16.895412	-16.895412	3.702943	0.001319	2.830000	2.850145	1.042628	14.996280
13.311396	0.000207	0.017268	0.017270	39.600109	2.717860	1.691294	-17.147584	-17.147584	-17.147584	3.708701	0.001402	2.830000	2.843432	1.041260	15.218280
13.503140	0.000213	0.017517	0.017518	40.111420	2.721544	1.691454	-17.403793	-17.403793	-17.403793	3.714647	0.001491	2.830000	2.836521	1.039851	15.443747
13.697647	0.000219	0.017769	0.017771	40.623169	2.725351	1.691617	-17.664115	-17.664115	-17.664115	3.720787	0.001586	2.830000	2.829409	1.038398	15.672741
13.894955	0.000226	0.018025	0.018027	41.135371	2.729287	1.691785	-17.928630	-17.928630	-17.928630	3.727128	0.001687	2.830000	2.822087	1.036901	15.905328
14.095105	0.000232	0.018285	0.018286	41.648039	2.733356	1.691957	-18.197420	-18.197420	-18.197420	3.733677	0.001794	2.830000	2.814551	1.035357	16.141572
14.298139	0.000239	0.018548	0.018550	42.161189	2.737564	1.692134	-18.470568	-18.470568	-18.470568	3.740443	0.001909	2.830000	2.806794	1.033766	16.381541
14.504097	0.000246	0.018815	0.018817	42.674836	2.741915	1.692315	-18.748161	-18.748161	-18.748161	3.747432	0.002032	2.830000	2.798810	1.032125	16.625301
14.713021	0.000253	0.019086	0.019088	43.188997	2.746416	1.692501	-19.030286	-19.030286	-19.030286	3.754654	0.002163	2.830000	2.790591	1.030434	16.872924
14.924955	0.000260	0.019361	0.019363	43.703687	2.751072	1.692691	-19.317036	-19.317036	-19.317036	3.762117	0.002302	2.830000	2.782131	1.028690	17.124482
15.139942	0.000268	0.019640	0.019642	44.218925	2.755890	1.692887	-19.608503	-19.608503	-19.608503	3.769831	0.002451	2.830000	2.773423	1.026892	17.380047
15.358026	0.000275	0.019923	0.019925	44.734727	2.760876	1.693088	-19.904785	-19.904785	-19.904785	3.777805	0.002610	2.830000	2.764459	1.025037	17.639695
15.579251	0.000283	0.020210	0.020212	45.251113	2.766037	1.693293	-20.205980	-20.205980	-20.205980	3.786050	0.002780	2.830000	2.755232	1.023125	17.903504
15.803663	0.000292	0.020501	0.020503	45.768102	2.771380	1.693504	-20.512191	-20.512191	-20.512191	3.794575	0.002962	2.830000	2.745734	1.021152	18.171553
16.031307	0.000300	0.020796	0.020798	46.285713	2.776912	1.693721	-20.823524	-20.823524	-20.823524	3.803392	0.003156	2.830000	2.735957	1.019118	18.443924
16.262231	0.000309	0.021095	0.021098	46.803967	2.782642	1.693942	-21.140087	-21.140087	-21.140087	3.812513	0.003363	2.830000	2.725893	1.017019	18.720700
16.496481	0.000318	0.021399	0.021401	47.322886	2.788578	1.694170	-21.461992	-21.461992	-21.461992	3.821950	0.003585	2.830000	2.715533	1.014854	19.001966
16.734105	0.000327	0.021707	0.021710	47.842491	2.794728	1.694403	-21.789355	-21.789355	-21.789355	3.831715	0.003823	2.830000	2.704868	1.012621	19.287812
16.975152	0.000337	0.022020	0.022022	48.362806	2.801102	1.694641	-22.122296	-22.122296	-22.122296	3.841822	0.004077	2.830000	2.693889	1.010317	19.578327
17.219671	0.000346	0.022337	0.022340	48.883854	2.807710	1.694886	-22.460938	-22.460938	-22.460938	3.852285	0.004349	2.830000	2.682588	1.007939	19.873605
17.467712	0.000356	0.022658	0.022661	49.405661	2.814561	1.695136	-22.805408	-22.805408	-22.805408	3.863120	0.004640	2.830000	2.670954	1.005485	20.173741
17.719326	0.000367	0.022985	0.022988	49.928252	2.821667	1.695393	-23.155840	-23.155840	-23.155840	3.874341	0.004952	2.830000	2.658978	1.002953	20.478834
17.974565	0.000377	0.023316	0.023319	50.451653	2.829039	1.695656	-23.512369	-23.512369	-23.512369	3.885966	0.005286	2.830000	2.646649	1.000340	20.788985
18.233480	0.000388	0.023651	0.023655	50.975893	2.836688	1.695925	-23.875136	-23.875136	-23.875136	3.898011	0.005645	2.830000	2.633957	0.997642	21.104298
18.496125	0.000400	0.023992	0.023995	51.501001	2.844629	1.696201	-24.244289	-24.244289	-24.244289	3.910496	0.006029	2.830000	2.620891	0.994857	21.424880
18.762553	0.000411	0.024337	0.024341	52.027007	2.852874	1.696483	-24.619978	-24.619978	-24.619978	3.923440	0.006442	2.830000	2.607441	0.991982	21.750841
19.032818	0.000423	0.024688	0.024691	52.553941	2.861437	1.696772	-25.002362	-25.002362	-25.002362	3.936863	0.006885	2.830000	2.593594	0.989014	22.082295
19.306977	0.000435	0.025043	0.025047	53.081837	2.870334	1.697068	-25.391603	-25.391603	-25.391603	3.950787	0.007361	2.830000	2.579339	0.985948	22.419358
19.585085	0.000448	0.025404	0.025408	53.610729	2.879581	1.697370	-25.787871	-25.787871	-25.787871	3.965235	0.007873	2.830000	2.564664	0.982782	22.762152
19.867199	0.000461	0.025770	0.025774	54.140651	2.889195	1.697680	-26.191342	-26.191342	-26.191342	3.980233	0.008423	2.830000	2.549556	0.979511	23.110801
20.153377	0.000474	0.026141	0.026145	54.671640	2.899195	1.697996	-26.602200	-26.602200	-26.602200	3.995805	0.009015	2.830000	2.534003	0.976133	23.465432
20.443677	0.000488	0.026517	0.026521	55.203736	2.909599	1.698320	-27.020634	-27.020634	-27.020634	4.011979	0.009652	2.830000	2.517991	0.972643	23.826179
20.738158	0.000502	0.026899	0.026903	55.736978	2.920428	1.698651	-27.446844	-27.446844	-27.446844	4.028785	0.010338	2.830000	2.501506	0.969036	24.193176
21.036882	0.000517	0.027286	0.027291	56.271407	2.931705	1.698989	-27.881036	-27.881036	-27.881036	4.046253	0.011078	2.830000	2.484536	0.965309	24.566565
21.339908	0.000532	0.027679	0.027684	56.807068	2.943453	1.699334	-28.323426	-28.323426	-28.323426	4.064418	0.011875	2.830000	2.467064	0.961456	24.946492
21.647300	0.000547	0.028077	0.028083	57.344005	2.955697	1.699687	-28.774238	-28.774238	-28.774238	4.083315	0.012736	2.830000	2.449077	0.957473	25.333106
21.959119	0.000563	0.028481	0.028487	57.882266	2.968464	1.700048	-29.233708	-29.233708	-29.233708	4.102981	0.013666	2.830000	2.430559	0.953355	25.726561
22.275430	0.000580	0.028891	0.028897	58.421902	2.981783	1.700416	-29.702082	-29.702082	-29.702082	4.123457	0.014671	2.830000	2.411494	0.949097	26.127020
22.596297	0.000596	0.029307	0.029313	58.962963	2.995685	1.700791	-30.179617	-30.179617	-30.179617	4.144786	0.015757	2.830000	2.391866	0.944692	26.534646
22.921786	0.000614	0.029729	0.029736	59.505504	3.010204	1.701174	-30.666582	-30.666582	-30.666582	4.167015	0.016934	2.830000	2.371659	0.940136	26.949611
23.251963	0.000631	0.030157	0.030164	60.049583	3.025375	1.701565	-31.163259	-31.163259	-31.163259	4.190194	0.018208	2.830000	2.350855	0.935421	27.372092
23.586897	0.000650	0.030591	0.030598	60.595258	3.041237	1.701964	-31.669946	-31.669946	-31.669946	4.214376	0.019590	2.830000	2.329438	0.930542	27.802272
23.926655	0.000669	0.031032	0.031039	61.142592	3.057833	1.702370	-32.186954	-32.186954	-32.186954	4.239618	0.021089	2.830000	2.307387	0.925492	28.240340
24.271307	0.000688	0.031478	0.031486	61.691651	3.075206	1.702783	-32.714610	-32.714610	-32.714610	4.265983	0.022718	2.830000	2.284687	0.920263	28.686493
24.620924	0.000708	0.031931	0.031939	62.242504	3.093407	1.703205	-33.253259	-33.253259	-33.253259	4.293538	0.024490	2.830000	2.261316	0.914849	29.140931
24.975577	0.000728	0.032391	0.032399	62.795221	3.112488	1.703633	-33.803266	-33.803266	-33.803266	4.322355	0.026418	2.830000	2.237255	0.909240	29.603866
25.335338	0.000750	0.032857	0.032866	63.349880	3.132507	1.704069	-34.365013	-34.365013	-34.365013	4.352512	0.028519	2.830000	2.212485	0.903430	30.075513
25.700282	0.000771	0.033330	0.033339	63.906560	3.153528	1.704512	-34.938906	-34.938906	-34.938906	4.384093	0.030812	2.830000	2.186985	0.897408	30.556097
26.070482	0.000794	0.033810	0.033819	64.465345	3.175619	1.704962	-35.525376	-35.525376	-35.525376	4.417191	0.033317	2.830000	2.160733	0.891165	31.045848
26.446016	0.000817	0.034296	0.034306	65.026323	3.198854	1.705418	-36.124875	-36.124875	-36.124875	4.451905	0.036056	2.830000	2.133708	0.884692	31.545006
26.826958	0.000840	0.034790	0.034800	65.589587	3.223318	1.705881	-36.737889	-36.737889	-36.737889	4.488344	0.039056	2.830000	2.105887	0.877977	32.053818
27.213388	0.000865	0.035291	0.035301	66.155235	3.249099	1.706350	-37.364928	-37.364928	-37.364928	4.526626	0.042347	2.830000	2.077248	0.871011	32.572537
27.605384	0.000890	0.035798	0.035810	66.723370	3.276299	1.706824	-38.006540	-38.006540	-38.006540	4.566880	0.045961	2.830000	2.047767	0.863780	33.101426
28.003026	0.000916	0.036314	0.036325	67.294103	3.305026	1.707304	-38.663306	-38.663306	-38.663306	4.609249	0.049938	2.830000	2.017421	0.856272	33.640753
28.406397	0.000942	0.036836	0.036848	67.867546	3.335404	1.707787	-39.335849	-39.335849	-39.335849	4.653887	0.054320	2.830000	1.986185	0.848473	34.190793
28.815578	0.000970	0.037366	0.037379	68.443824	3.367567	1.708275	-40.024832	-40.024832	-40.024832	4.700963	0.059158	2.830000	1.954035	0.840369	34.751828
29.230652	0.000998	0.037904	0.037917	69.023065	3.401666	1.708765	-40.730968	-40.730968	-40.730968	4.750667	0.064508	2.830000	1.920945	0.831945	35.324145
29.651706	0.001027	0.038449	0.038463	69.605406	3.437871	1.709257	-41.455022	-41.455022	-41.455022	4.803203	0.070437	2.830000	1.886890	0.823184	35.908033
30.078825	0.001056	0.039003	0.039017	70.190991	3.476369	1.709750	-42.197816	-42.197816	-42.197816	4.858800	0.077021	2.830000	1.851844	0.814068	36.503785
30.512097	0.001087	0.039564	0.039579	70.779974	3.517373	1.710242	-42.960237	-42.960237	-42.960237	4.917710	0.084348	2.830000	1.815782	0.804578	37.111690
30.951609	0.001119	0.040133	0.040149	71.372518	3.561124	1.710731	-43.743243	-43.743243	-43.743243	4.980213	0.092522	2.830000	1.778677	0.794693	37.732035
31.397452	0.001151	0.040710	0.040727	71.968797	3.607893	1.711215	-44.547868	-44.547868	-44.547868	5.046621	0.101663	2.830000	1.740504	0.784391	38.365097
31.849718	0.001184	0.041296	0.041313	72.568995	3.657989	1.711692	-45.375238	-45.375238	-45.375238	5.117278	0.111912	2.830000	1.701237	0.773649	39.011136
32.308498	0.001219	0.041890	0.041908	73.173307	3.711767	1.712159	-46.226573	-46.226573	-46.226573	5.192574	0.123437	2.830000	1.660849	0.762440	39.670391
32.773887	0.001254	0.042493	0.042511	73.781943	3.769635	1.712613	-47.103206	-47.103206	-47.103206	5.272939	0.136434	2.830000	1.619319	0.750736	40.343063
33.245979	0.001291	0.043104	0.043123	74.395124	3.832060	1.713049	-48.006590	-48.006590	-48.006590	5.358861	0.151139	2.830000	1.576621	0.738506	41.029308
33.724872	0.001328	0.043724	0.043744	75.013088	3.899590	1.713463	-48.938318	-48.938318	-48.938318	5.450885	0.167832	2.830000	1.532734	0.725717	41.729208
34.210663	0.001367	0.044353	0.044374	75.636087	3.972862	1.713848	-49.900140	-49.900140	-49.900140	5.549628	0.186854	2.830000	1.487639	0.712333	42.442757
34.703452	0.001406	0.044991	0.045013	76.264390	4.052626	1.714199	-50.893981	-50.893981	-50.893981	5.655786	0.208612	2.830000	1.441318	0.698313	43.169815
35.203338	0.001447	0.045638	0.045661	76.898285	4.139768	1.714505	-51.921970	-51.921970	-51.921970	5.770149	0.233605	2.830000	1.393760	0.683613	43.910071
35.710426	0.001489	0.046294	0.046318	77.538080	4.235348	1.714758	-52.986460	-52.986460	-52.986460	5.893615	0.262443	2.830000	1.344957	0.668186	44.662975
36.224818	0.001532	0.046960	0.046985	78.184100	4.340637	1.714944	-54.090070	-54.090070	-54.090070	6.027205	0.295878	2.830000	1.294907	0.651978	45.427654
36.746619	0.001576	0.047635	0.047661	78.836696	4.457179	1.715048	-55.235714	-55.235714	-55.235714	6.172090	0.334845	2.830000	1.243617	0.634931	46.202794
37.275937	0.001622	0.048320	0.048347	79.496239	4.586865	1.715053	-56.426652	-56.426652	-56.426652	6.329609	0.380512	2.830000	1.191105	0.616979	46.986479
37.812880	0.001669	0.049015	0.049043	80.163124	4.732033	1.714936	-57.666538	-57.666538	-57.666538	6.501302	0.434352	2.830000	1.137404	0.598052	47.775955
38.357556	0.001718	0.049720	0.049749	80.837771	4.895613	1.714669	-58.959486	-58.959486	-58.959486	6.688944	0.498236	2.830000	1.082563	0.578069	48.567310
38.910079	0.001767	0.050435	0.050466	81.520626	5.081322	1.714218	-60.310137	-60.310137	-60.310137	6.894587	0.574560	2.830000	1.026654	0.556942	49.354990
39.470560	0.001819	0.051160	0.051192	82.212155	5.293941	1.713541	-61.723753	-61.723753	-61.723753	7.120607	0.666418	2.830000	0.969782	0.534573	50.131111
40.039115	0.001871	0.051895	0.051929	82.912851	5.539722	1.712586	-63.206314	-63.206314	-63.206314	7.369765	0.777837	2.830000	0.912087	0.510856	50.884409
40.615860	0.001926	0.052641	0.052676	83.623223	5.826989	1.711288	-64.764642	-64.764642	-64.764642	7.645272	0.914091	2.830000	0.853762	0.485671	51.598635
41.200912	0.001982	0.053398	0.053435	84.343796	6.167051	1.709565	-66.406548	-66.406548	-66.406548	7.950875	1.082137	2.830000	0.795061	0.458890	52.250042
41.794392	0.002039	0.054165	0.054204	85.075102	6.575630	1.707315	-68.141000	-68.141000	-68.141000	8.290944	1.291169	2.830000	0.736326	0.430377	52.803302
42.396421	0.002098	0.054944	0.054984	85.817663	7.075156	1.704408	-69.978334	-69.978334	-69.978334	8.670581	1.553328	2.830000	0.678006	0.399991	53.204675
43.007121	0.002159	0.055734	0.055775	86.571981	7.698583	1.700680	-71.930491	-71.930491	-71.930491	9.095739	1.884488	2.830000	0.620693	0.367600	53.370098
43.626619	0.002222	0.056534	0.056578	87.338500	8.495906	1.695921	-74.011305	-74.011305	-74.011305	9.573340	2.304897	2.830000	0.565168	0.333102	53.163443
44.255040	0.002286	0.057347	0.057392	88.117575	9.545535	1.689864	-76.236828	-76.236828	-76.236828	10.111395	2.839005	2.830000	0.512449	0.296474	52.354724
44.892513	0.002352	0.058171	0.058218	88.909412	10.973838	1.682167	-78.625703	-78.625703	-78.625703	10.719097	3.512903	2.830000	0.463876	0.257886	50.535132
45.539168	0.002421	0.059007	0.059056	89.713988	12.983640	1.672390	-81.199577	-81.199577	-81.199577	11.406843	4.346229	2.830000	0.421191	0.217967	46.936066
46.195138	0.002491	0.059854	0.059906	90.530939	15.855759	1.659965	-83.983530	-83.983530	-83.983530	12.186129	5.333790	2.830000	0.386662	0.178484	40.048511
46.860558	0.002563	0.060714	0.060768	91.359408	19.635663	1.644165	-87.006466	-87.006466	-87.006466	13.069191	6.414511	2.830000	0.363213	0.144126	27.063765
47.535562	0.002637	0.061586	0.061643	92.197828	22.496586	1.624057	-90.301412	-90.301412	-90.301412	14.068231	7.440726	2.830000	0.354579	0.125797	5.130135
48.220290	0.002714	0.062471	0.062530	93.043645	20.537371	1.598455	-93.905540	-93.905540	-93.905540	15.193938	8.190730	2.830000	0.365443	0.137798	-20.427974
48.914880	0.002792	0.063368	0.063430	93.892951	15.654753	1.565871	-97.859705	-97.859705	-97.859705	16.452942	8.466190	2.830000	0.401523	0.180776	-38.293641
49.619476	0.002873	0.064278	0.064342	94.740036	11.578589	1.524473	-102.207099	-102.207099	-102.207099	17.843740	8.220699	2.830000	0.469510	0.244417	-47.251841
50.334221	0.002957	0.065201	0.065268	95.576886	8.806040	1.472087	-106.990524	-106.990524	-106.990524	19.350727	7.583836	2.830000	0.576692	0.321370	-50.647403
51.059262	0.003042	0.066137	0.066207	96.392704	6.939432	1.406265	-112.247647	-112.247647	-112.247647	20.936367	6.758125	2.830000	0.730067	0.407814	-50.759487
51.794747	0.003130	0.067087	0.067160	97.173610	5.647946	1.324492	-118.003715	-118.003715	-118.003715	22.532745	5.910186	2.830000	0.934687	0.501067	-48.764976
52.540826	0.003221	0.068050	0.068126	97.902798	4.730203	1.224570	-124.261735	-124.261735	-124.261735	24.035759	5.133887	2.830000	1.191184	0.598283	-45.288680
53.297652	0.003315	0.069027	0.069106	98.561479	4.066735	1.105213	-130.991385	-130.991385	-130.991385	25.307700	4.464839	2.830000	1.492857	0.695890	-40.708439
54.065379	0.003411	0.070017	0.070100	99.130853	3.584460	0.966756	-138.119800	-138.119800	-138.119800	26.194579	3.905921	2.830000	1.823490	0.789519	-35.301708
54.844166	0.003509	0.071022	0.071109	99.595013	3.236524	0.811721	-145.529006	-145.529006	-145.529006	26.559950	3.445901	2.830000	2.157678	0.874395	-29.313716
55.634170	0.003611	0.072041	0.072132	99.944105	2.991222	0.644928	-153.064319	-153.064319	-153.064319	26.326089	3.069507	2.830000	2.464948	0.946102	-22.982146
56.435554	0.003716	0.073075	0.073169	100.176590	2.825890	0.472910	-160.554081	-160.554081	-160.554081	25.503013	2.761912	2.830000	2.716913	1.001454	-16.535027
57.248482	0.003823	0.074123	0.074222	100.299604	2.723536	0.302836	-167.835312	-167.835312	-167.835312	24.187794	2.510328	2.830000	2.894378	1.039090	-10.175013
58.073119	0.003934	0.075186	0.075289	100.327242	2.671020	0.141927	-174.776280	-174.776280	-174.776280	22.533702	2.304307	2.830000	2.990908	1.059520	-4.062649
58.909635	0.004048	0.076265	0.076372	100.277565	2.658071	0.034202	178.711116	-181.288884	178.711116	20.706693	2.135535	2.830000	3.011735	1.064682	1.692424
59.758201	0.004166	0.077358	0.077471	100.169501	2.676703	0.151166	172.670636	-187.329364	172.670636	18.849953	1.997483	2.830000	2.969583	1.057271	7.029899
60.618990	0.004286	0.078468	0.078585	100.020531	2.720812	0.269329	167.109279	-192.890721	167.109279	17.066650	1.885061	2.830000	2.879994	1.040131	11.929725
61.492178	0.004410	0.079593	0.079715	99.845416	2.785849	0.372956	162.008202	-197.991798	162.008202	15.418924	1.794319	2.830000	2.757882	1.015848	16.400172
62.377944	0.004538	0.080734	0.080861	99.655828	2.868529	0.462423	157.333181	-202.666819	157.333181	13.935828	1.722200	2.830000	2.615746	0.986568	20.466656
63.276469	0.004670	0.081891	0.082024	99.460525	2.966593	0.539027	153.042783	-206.957217	153.042783	12.623667	1.666359	2.830000	2.463160	0.953956	24.163061
64.187937	0.004805	0.083064	0.083203	99.265794	3.078601	0.604266	149.093902	-210.906098	149.093902	11.475085	1.625012	2.830000	2.306994	0.919249	27.525817
65.112534	0.004944	0.084255	0.084400	99.075964	3.203775	0.659612	145.445091	-214.554909	145.445091	10.475710	1.596833	2.830000	2.151926	0.883333	30.590279
66.050449	0.005087	0.085462	0.085613	98.893872	3.341887	0.706412	142.058294	-217.941706	142.058294	9.608451	1.580866	2.830000	2.000989	0.846827	33.388754
67.001875	0.005235	0.086686	0.086844	98.721256	3.493173	0.745857	138.899552	-221.100448	138.899552	8.856008	1.576469	2.830000	1.856042	0.810152	35.949590
67.967006	0.005386	0.087927	0.088092	98.559069	3.658285	0.778973	135.939110	-224.060890	135.939110	8.202199	1.583260	2.830000	1.718145	0.773587	38.296888
68.946038	0.005542	0.089187	0.089359	98.407709	3.838265	0.806637	133.151187	-226.848813	133.151187	7.632536	1.601090	2.830000	1.587827	0.737312	40.450551
69.939174	0.005703	0.090464	0.090643	98.267190	4.034550	0.829587	130.513603	-229.486397	130.513603	7.134389	1.630007	2.830000	1.465273	0.701441	42.426470
70.946615	0.005868	0.091758	0.091946	98.137270	4.248990	0.848450	128.007353	-231.992647	128.007353	6.696929	1.670243	2.830000	1.350458	0.666041	44.236748
71.968567	0.006038	0.093072	0.093267	98.017540	4.483894	0.863751	125.616185	-234.383815	125.616185	6.310959	1.722186	2.830000	1.243230	0.631148	45.889886
73.005241	0.006213	0.094404	0.094608	97.907485	4.742100	0.875936	123.326213	-236.673787	123.326213	5.968716	1.786361	2.830000	1.143369	0.596782	47.390885
74.056847	0.006393	0.095754	0.095967	97.806535	5.027074	0.885381	121.125570	-238.874430	121.125570	5.663668	1.863409	2.830000	1.050622	0.562952	48.741241
75.123601	0.006578	0.097124	0.097346	97.714088	5.343043	0.892406	119.004110	-240.995890	119.004110	5.390323	1.954045	2.830000	0.964726	0.529661	49.938794
76.205721	0.006768	0.098513	0.098745	97.629538	5.695175	0.897284	116.953147	-243.046853	116.953147	5.144067	2.059022	2.830000	0.885419	0.496912	50.977403
77.303429	0.006964	0.099921	0.100164	97.552287	6.089806	0.900250	114.965239	-245.034761	114.965239	4.921015	2.179054	2.830000	0.812452	0.464711	51.846388
78.416948	0.007166	0.101350	0.101603	97.481755	6.534756	0.901506	113.034004	-246.965996	113.034004	4.717896	2.314737	2.830000	0.745585	0.433069	52.529677
79.546508	0.007373	0.102798	0.103062	97.417385	7.039718	0.901227	111.153959	-248.846041	111.153959	4.531949	2.466416	2.830000	0.684597	0.402005	53.004544
80.692338	0.007587	0.104267	0.104543	97.358649	7.616779	0.899568	109.320394	-250.679606	109.320394	4.360839	2.634032	2.830000	0.629277	0.371548	53.239787
81.854673	0.007806	0.105756	0.106044	97.305048	8.281052	0.896663	107.529254	-252.470746	107.529254	4.202589	2.816923	2.830000	0.579430	0.341744	53.193114
83.033751	0.008032	0.107267	0.107567	97.256116	9.051446	0.892631	105.777052	-254.222948	105.777052	4.055518	3.013596	2.830000	0.534870	0.312657	52.807427
84.229813	0.008265	0.108798	0.109112	97.211414	9.951459	0.887578	104.060783	-255.939217	104.060783	3.918199	3.221489	2.830000	0.495421	0.284380	52.005555
85.443104	0.008504	0.110351	0.110679	97.170537	11.009719	0.881599	102.377862	-257.622138	102.377862	3.789416	3.436755	2.830000	0.460914	0.257046	50.682926
86.673872	0.008750	0.111926	0.112268	97.133107	12.259493	0.874780	100.726058	-259.273942	100.726058	3.668131	3.654133	2.830000	0.431186	0.230842	48.697793
87.922369	0.009003	0.113523	0.113879	97.098776	13.735197	0.867199	99.103453	-260.896547	99.103453	3.553456	3.866970	2.830000	0.406078	0.206040	45.859489
89.188849	0.009263	0.115142	0.115514	97.067221	15.461557	0.858926	97.508395	-262.491605	97.508395	3.444635	4.067481	2.830000	0.385434	0.183035	41.918261
90.473572	0.009531	0.116784	0.117172	97.038147	17.426977	0.850027	95.939461	-264.060539	95.939461	3.341017	4.247264	2.830000	0.369100	0.162392	36.568710
91.776802	0.009807	0.118449	0.118854	97.011281	19.530329	0.840561	94.395427	-265.604573	94.395427	3.242048	4.398081	2.830000	0.356921	0.144903	29.497243
93.098803	0.010090	0.120136	0.120559	96.986374	21.507003	0.830583	92.875240	-267.124760	92.875240	3.147251	4.512781	2.830000	0.348744	0.131585	20.526136
94.439848	0.010382	0.121848	0.122289	96.963200	22.909113	0.820145	91.377995	-268.622005	91.377995	3.056218	4.586193	2.830000	0.344414	0.123532	9.875807
95.800210	0.010682	0.123583	0.124044	96.941550	23.287434	0.809294	89.902914	-270.097086	89.902914	2.968599	4.615780	2.830000	0.343777	0.121525	-1.624735
97.180167	0.010991	0.125342	0.125823	96.921237	22.532919	0.798076	88.449326	-271.550674	88.449326	2.884094	4.601892	2.830000	0.346676	0.125594	-12.743702
98.580001	0.011309	0.127126	0.127628	96.902090	20.971050	0.786532	87.016653	-272.983347	87.016653	2.802445	4.547561	2.830000	0.352953	0.134948	-22.452419
100.000000	0.011636	0.128935	0.129459	96.883953	19.074144	0.774701	85.604398	-274.395602	85.604398	2.723433	4.457927	2.830000	0.362452	0.148368	-30.319725
101.440453	0.011972	0.130768	0.131315	96.866689	17.186641	0.762620	84.212129	-275.787871	84.212129	2.646867	4.339443	2.830000	0.375012	0.164663	-36.413455
102.901655	0.012318	0.132627	0.133198	96.850172	15.474437	0.750324	82.839472	-277.160528	82.839472	2.572587	4.199064	2.830000	0.390475	0.182882	-41.021972
104.383905	0.012674	0.134512	0.135108	96.834291	13.986204	0.737846	81.486099	-278.513901	81.486099	2.500452	4.043556	2.830000	0.408681	0.202342	-44.463866
105.887506	0.013040	0.136423	0.137044	96.818947	12.715253	0.725216	80.151723	-279.848277	80.151723	2.430344	3.879011	2.830000	0.429470	0.222567	-47.012072
107.412766	0.013417	0.138360	0.139009	96.804050	11.635091	0.712464	78.836089	-281.163911	78.836089	2.362160	3.710575	2.830000	0.452685	0.243230	-48.879292
108.959997	0.013804	0.140323	0.141001	96.789522	10.715583	0.699616	77.538966	-282.461034	77.538966	2.295810	3.542356	2.830000	0.478168	0.264101	-50.225356
110.529514	0.014203	0.142314	0.143021	96.775297	9.929085	0.686699	76.260146	-283.739854	76.260146	2.231219	3.377465	2.830000	0.505764	0.285021	-51.169121
112.121640	0.014613	0.144332	0.145070	96.761312	9.252187	0.673735	74.999438	-285.000562	74.999438	2.168320	3.218127	2.830000	0.535318	0.305874	-51.799162
113.736699	0.015035	0.146378	0.147148	96.747517	8.665726	0.660749	73.756662	-286.243338	73.756662	2.107055	3.065825	2.830000	0.566680	0.326574	-52.182015
115.375023	0.015469	0.148452	0.149255	96.733867	8.154225	0.647761	72.531648	-287.468352	72.531648	2.047373	2.921453	2.830000	0.599703	0.347059	-52.368203
117.036946	0.015915	0.150554	0.151393	96.720322	7.705235	0.634790	71.324232	-288.675768	71.324232	1.989230	2.785459	2.830000	0.634241	0.367283	-52.396541
118.722808	0.016375	0.152684	0.153560	96.706852	7.308725	0.621855	70.134254	-289.865746	70.134254	1.932584	2.657955	2.830000	0.670154	0.387208	-52.297202
120.432955	0.016847	0.154844	0.155758	96.693428	6.956580	0.608973	68.961555	-291.038445	68.961555	1.877401	2.538821	2.830000	0.707305	0.406809	-52.093912
122.167735	0.017333	0.157034	0.157987	96.680029	6.642194	0.596161	67.805979	-292.194021	67.805979	1.823647	2.427780	2.830000	0.745561	0.426064	-51.805530
123.927504	0.017833	0.159252	0.160248	96.666637	6.360158	0.583432	66.667365	-293.332635	66.667365	1.771292	2.324453	2.830000	0.784797	0.444958	-51.447198
125.712621	0.018347	0.161502	0.162540	96.653236	6.106011	0.570800	65.545553	-294.454447	65.545553	1.720306	2.228401	2.830000	0.824888	0.463478	-51.031187
127.523453	0.018876	0.163781	0.164865	96.639818	5.876050	0.558277	64.440379	-295.559621	64.440379	1.670664	2.139159	2.830000	0.865718	0.481616	-50.567528
129.360368	0.019420	0.166091	0.167223	96.626372	5.667180	0.545876	63.351675	-296.648325	63.351675	1.622340	2.056256	2.830000	0.907173	0.499367	-50.064483
131.223743	0.019980	0.168433	0.169614	96.612896	5.476798	0.533606	62.279269	-297.720731	62.279269	1.575308	1.979228	2.830000	0.949148	0.516725	-49.528909
133.113960	0.020556	0.170806	0.172038	96.599384	5.302703	0.521477	61.222986	-298.777014	61.222986	1.529545	1.907629	2.830000	0.991540	0.533690	-48.966530
135.031404	0.021148	0.173210	0.174497	96.585837	5.143020	0.509497	60.182645	-299.817355	60.182645	1.485027	1.841036	2.830000	1.034253	0.550260	-48.382156
136.976468	0.021757	0.175647	0.176990	96.572254	4.996145	0.497674	59.158060	-300.841940	59.158060	1.441731	1.779053	2.830000	1.077196	0.566437	-47.779848
138.949549	0.022384	0.178117	0.179518	96.558638	4.860699	0.486014	58.149043	-301.850957	58.149043	1.399632	1.721312	2.830000	1.120284	0.582221	-47.163049
140.951052	0.023028	0.180620	0.182082	96.544993	4.735489	0.474524	57.155400	-302.844600	57.155400	1.358709	1.667471	2.830000	1.163437	0.597615	-46.534695
142.981386	0.023691	0.183155	0.184681	96.531321	4.619479	0.463209	56.176931	-303.823069	56.176931	1.318937	1.617217	2.830000	1.206579	0.612623	-45.897295
145.040966	0.024373	0.185725	0.187317	96.517629	4.511764	0.452073	55.213437	-304.786563	55.213437	1.280294	1.570263	2.830000	1.249641	0.627249	-45.252998
147.130213	0.025074	0.188328	0.189990	96.503921	4.411555	0.441121	54.264710	-305.735290	54.264710	1.242756	1.526345	2.830000	1.292557	0.641497	-44.603657
149.249555	0.025796	0.190966	0.192701	96.490204	4.318153	0.430355	53.330543	-306.669457	53.330543	1.206299	1.485223	2.830000	1.335268	0.655373	-43.950864
151.399424	0.026537	0.193639	0.195449	96.476484	4.230945	0.419778	52.410722	-307.589278	52.410722	1.170901	1.446676	2.830000	1.377717	0.668881	-43.295997
153.580262	0.027300	0.196347	0.198236	96.462768	4.149386	0.409393	51.505035	-308.494965	51.505035	1.136538	1.410505	2.830000	1.419853	0.682029	-42.640246
155.792513	0.028085	0.199090	0.201061	96.449062	4.072992	0.399201	50.613263	-309.386737	50.613263	1.103186	1.376526	2.830000	1.461631	0.694821	-41.984640
158.036631	0.028892	0.201869	0.203926	96.435374	4.001331	0.389203	49.735189	-310.264811	49.735189	1.070822	1.344572	2.830000	1.503006	0.707265	-41.330070
160.313075	0.029722	0.204684	0.206831	96.421709	3.934018	0.379400	48.870592	-311.129408	48.870592	1.039422	1.314492	2.830000	1.543941	0.719366	-40.677307
162.622309	0.030576	0.207536	0.209776	96.408074	3.870707	0.369792	48.019251	-311.980749	48.019251	1.008963	1.286146	2.830000	1.584399	0.731133	-40.027018
164.964807	0.031453	0.210424	0.212762	96.394475	3.811085	0.360380	47.180943	-312.819057	47.180943	0.979422	1.259408	2.830000	1.624351	0.742571	-39.379779
167.341048	0.032356	0.213350	0.215790	96.380919	3.754873	0.351162	46.355446	-313.644554	46.355446	0.950774	1.234160	2.830000	1.663767	0.753687	-38.736085
169.751517	0.033284	0.216314	0.218859	96.367411	3.701817	0.342138	45.542536	-314.457464	45.542536	0.922999	1.210297	2.830000	1.702623	0.764489	-38.096364
172.196708	0.034239	0.219315	0.221972	96.353957	3.651687	0.333308	44.741991	-315.258009	44.741991	0.896071	1.187722	2.830000	1.740896	0.774984	-37.460981
174.677121	0.035221	0.222355	0.225127	96.340562	3.604275	0.324669	43.953587	-316.046413	43.953587	0.869970	1.166345	2.830000	1.778567	0.785179	-36.830248
177.193263	0.036230	0.225433	0.228326	96.327231	3.559389	0.316221	43.177104	-316.822896	43.177104	0.844671	1.146084	2.830000	1.815620	0.795080	-36.204428
179.745648	0.037268	0.228550	0.231568	96.313968	3.516859	0.307961	42.412320	-317.587680	42.412320	0.820155	1.126865	2.830000	1.852041	0.804695	-35.583745
182.334800	0.038336	0.231706	0.234856	96.300777	3.476524	0.299889	41.659016	-318.340984	41.659016	0.796397	1.108618	2.830000	1.887817	0.814032	-34.968382
184.961247	0.039433	0.234902	0.238189	96.287662	3.438240	0.292000	40.916972	-319.083028	40.916972	0.773378	1.091279	2.830000	1.922939	0.823095	-34.358494
187.625527	0.040562	0.238138	0.241568	96.274625	3.401876	0.284295	40.185971	-319.814029	40.185971	0.751075	1.074790	2.830000	1.957400	0.831894	-33.754202
190.328185	0.041722	0.241414	0.244993	96.261671	3.367308	0.276769	39.465799	-320.534201	39.465799	0.729469	1.059097	2.830000	1.991192	0.840434	-33.155604
193.069773	0.042915	0.244731	0.248465	96.248800	3.334425	0.269421	38.756243	-321.243757	38.756243	0.708538	1.044149	2.830000	2.024313	0.848722	-32.562775
195.850852	0.044142	0.248088	0.251985	96.236016	3.303124	0.262248	38.057090	-321.942910	38.057090	0.688264	1.029901	2.830000	2.056758	0.856765	-31.975769
198.671992	0.045403	0.251487	0.255552	96.223319	3.273308	0.255248	37.368131	-322.631869	37.368131	0.668625	1.016310	2.830000	2.088528	0.864569	-31.394621
201.533769	0.046700	0.254927	0.259169	96.210711	3.244891	0.248417	36.689161	-323.310839	36.689161	0.649604	1.003335	2.830000	2.119621	0.872140	-30.819352
204.436768	0.048033	0.258408	0.262835	96.198192	3.217790	0.241752	36.019974	-323.980026	36.019974	0.631181	0.990941	2.830000	2.150039	0.879486	-30.249967
207.381584	0.049403	0.261932	0.266550	96.185764	3.191930	0.235252	35.360369	-324.639631	35.360369	0.613338	0.979093	2.830000	2.179785	0.886611	-29.686459
210.368818	0.050812	0.265498	0.270316	96.173425	3.167241	0.228912	34.710146	-325.289854	34.710146	0.596058	0.967760	2.830000	2.208861	0.893522	-29.128810
213.399082	0.052260	0.269106	0.274133	96.161177	3.143658	0.222731	34.069108	-325.930892	34.069108	0.579322	0.956911	2.830000	2.237272	0.900225	-28.576991
216.472995	0.053749	0.272757	0.278002	96.149017	3.121120	0.216704	33.437062	-326.562938	33.437062	0.563115	0.946520	2.830000	2.265022	0.906726	-28.030966
219.591187	0.055279	0.276450	0.281923	96.136946	3.099571	0.210829	32.813817	-327.186183	32.813817	0.547418	0.936560	2.830000	2.292118	0.913030	-27.490690
222.754295	0.056852	0.280187	0.285897	96.124962	3.078958	0.205103	32.199183	-327.800817	32.199183	0.532218	0.927008	2.830000	2.318565	0.919142	-26.956110
225.962966	0.058469	0.283967	0.289924	96.113063	3.059233	0.199523	31.592975	-328.407025	31.592975	0.517496	0.917841	2.830000	2.344370	0.925068	-26.427168
229.217857	0.060131	0.287790	0.294005	96.101247	3.040350	0.194086	30.995011	-329.004989	30.995011	0.503240	0.909039	2.830000	2.369542	0.930814	-25.903802
232.519632	0.061839	0.291657	0.298141	96.089512	3.022266	0.188788	30.405109	-329.594891	30.405109	0.489433	0.900581	2.830000	2.394086	0.936384	-25.385943
235.868968	0.063594	0.295568	0.302332	96.077856	3.004940	0.183628	29.823094	-330.176906	29.823094	0.476061	0.892449	2.830000	2.418012	0.941783	-24.873519
239.266550	0.065399	0.299523	0.306579	96.066276	2.988336	0.178601	29.248791	-330.751209	29.248791	0.463111	0.884627	2.830000	2.441329	0.947015	-24.366454
242.713072	0.067253	0.303521	0.310883	96.054768	2.972418	0.173705	28.682028	-331.317972	28.682028	0.450569	0.877098	2.830000	2.464044	0.952087	-23.864669
246.209240	0.069158	0.307564	0.315243	96.043330	2.957153	0.168937	28.122636	-331.877364	28.122636	0.438422	0.869846	2.830000	2.486167	0.957002	-23.368084
249.755769	0.071116	0.311651	0.319662	96.031958	2.942510	0.164294	27.570449	-332.429551	27.570449	0.426657	0.862858	2.830000	2.507707	0.961764	-22.876613
253.353383	0.073128	0.315782	0.324138	96.020648	2.928460	0.159774	27.025305	-332.974695	27.025305	0.415261	0.856119	2.830000	2.528674	0.966378	-22.390171
257.002820	0.075196	0.319957	0.328674	96.009397	2.914975	0.155372	26.487042	-333.512958	26.487042	0.404224	0.849618	2.830000	2.549077	0.970849	-21.908670
260.704825	0.077320	0.324176	0.333269	95.998200	2.902031	0.151088	25.955503	-334.044497	25.955503	0.393533	0.843342	2.830000	2.568924	0.975179	-21.432022
264.460155	0.079502	0.328439	0.337924	95.987052	2.889602	0.146917	25.430533	-334.569467	25.430533	0.383177	0.837279	2.830000	2.588227	0.979374	-20.960137
268.269580	0.081745	0.332746	0.342640	95.975949	2.877666	0.142857	24.911978	-335.088022	24.911978	0.373145	0.831420	2.830000	2.606995	0.983436	-20.492923
272.133877	0.084048	0.337098	0.347418	95.964887	2.866201	0.138905	24.399691	-335.600309	24.399691	0.363427	0.825753	2.830000	2.625237	0.987370	-20.030289
276.053838	0.086415	0.341493	0.352257	95.953861	2.855186	0.135059	23.893521	-336.106479	23.893521	0.354013	0.820270	2.830000	2.642962	0.991179	-19.572143
280.030263	0.088845	0.345932	0.357159	95.942864	2.844603	0.131317	23.393326	-336.606674	23.393326	0.344892	0.814961	2.830000	2.660181	0.994866	-19.118393
284.063968	0.091343	0.350414	0.362124	95.931892	2.834434	0.127675	22.898962	-337.101038	22.898962	0.336055	0.809818	2.830000	2.676903	0.998436	-18.668945
288.155776	0.093907	0.354940	0.367152	95.920940	2.824660	0.124131	22.410289	-337.589711	22.410289	0.327494	0.804832	2.830000	2.693137	1.001891	-18.223707
292.306525	0.096542	0.359508	0.372245	95.910002	2.815266	0.120682	21.927170	-338.072830	21.927170	0.319199	0.799996	2.830000	2.708892	1.005234	-17.782586
296.517063	0.099247	0.364120	0.377403	95.899071	2.806237	0.117327	21.449468	-338.550532	21.449468	0.311161	0.795302	2.830000	2.724179	1.008468	-17.345489
300.788252	0.102025	0.368773	0.382627	95.888143	2.797557	0.114063	20.977052	-339.022948	20.977052	0.303373	0.790744	2.830000	2.739005	1.011597	-16.912325
305.120965	0.104879	0.373469	0.387916	95.877210	2.789214	0.110888	20.509789	-339.490211	20.509789	0.295825	0.786313	2.830000	2.753380	1.014623	-16.483000
309.516090	0.107808	0.378206	0.393272	95.866267	2.781194	0.107799	20.047551	-339.952449	20.047551	0.288512	0.782005	2.830000	2.767313	1.017549	-16.057422
313.974523	0.110817	0.382985	0.398695	95.855307	2.773484	0.104793	19.590211	-340.409789	19.590211	0.281424	0.777813	2.830000	2.780812	1.020377	-15.635501
318.497179	0.113905	0.387803	0.404185	95.844323	2.766073	0.101870	19.137644	-340.862356	19.137644	0.274554	0.773731	2.830000	2.793886	1.023111	-15.217146
323.084981	0.117076	0.392662	0.409744	95.833309	2.758950	0.099027	18.689728	-341.310272	18.689728	0.267896	0.769753	2.830000	2.806543	1.025753	-14.802265
327.738869	0.120331	0.397560	0.415372	95.822258	2.752104	0.096261	18.246342	-341.753658	18.246342	0.261443	0.765874	2.830000	2.818791	1.028304	-14.390770
332.459793	0.123673	0.402497	0.421069	95.811163	2.745525	0.093571	17.807366	-342.192634	17.807366	0.255188	0.762089	2.830000	2.830639	1.030768	-13.982571
337.248720	0.127102	0.407471	0.426835	95.800016	2.739203	0.090955	17.372684	-342.627316	17.372684	0.249125	0.758394	2.830000	2.842095	1.033147	-13.577579
342.106630	0.130623	0.412483	0.432671	95.788811	2.733130	0.088411	16.942180	-343.057820	16.942180	0.243248	0.754782	2.830000	2.853165	1.035443	-13.175706
347.034515	0.134235	0.417531	0.438579	95.777540	2.727297	0.085936	16.515741	-343.484259	16.515741	0.237550	0.751251	2.830000	2.863857	1.037657	-12.776865
352.033384	0.137942	0.422614	0.444557	95.766195	2.721696	0.083530	16.093255	-343.906745	16.093255	0.232027	0.747795	2.830000	2.874179	1.039793	-12.380969
357.104260	0.141746	0.427732	0.450607	95.754768	2.716318	0.081190	15.674612	-344.325388	15.674612	0.226672	0.744410	2.830000	2.884138	1.041852	-11.987933
362.248179	0.145649	0.432882	0.456728	95.743252	2.711157	0.078914	15.259702	-344.740298	15.259702	0.221480	0.741092	2.830000	2.893741	1.043835	-11.597670
367.466194	0.149654	0.438065	0.462922	95.731638	2.706205	0.076701	14.848419	-345.151581	14.848419	0.216446	0.737838	2.830000	2.902994	1.045745	-11.210097
372.759372	0.153761	0.443278	0.469189	95.719919	2.701457	0.074549	14.440656	-345.559344	14.440656	0.211565	0.734643	2.830000	2.911904	1.047583	-10.825130
378.128796	0.157975	0.448521	0.475528	95.708085	2.696904	0.072457	14.036311	-345.963689	14.036311	0.206833	0.731503	2.830000	2.920477	1.049351	-10.442686
383.575563	0.162296	0.453792	0.481941	95.696128	2.692542	0.070422	13.635279	-346.364721	13.635279	0.202243	0.728416	2.830000	2.928719	1.051051	-10.062681
389.100789	0.166728	0.459089	0.488427	95.684040	2.688365	0.068444	13.237460	-346.762540	13.237460	0.197793	0.725378	2.830000	2.936637	1.052684	-9.685036
394.705603	0.171273	0.464412	0.494988	95.671811	2.684367	0.066520	12.842753	-347.157247	12.842753	0.193477	0.722386	2.830000	2.944236	1.054252	-9.309668
400.391152	0.175933	0.469758	0.501622	95.659433	2.680543	0.064650	12.451059	-347.548941	12.451059	0.189292	0.719436	2.830000	2.951522	1.055756	-8.936499
406.158599	0.180710	0.475125	0.508331	95.646895	2.676888	0.062832	12.062281	-347.937719	12.062281	0.185233	0.716525	2.830000	2.958499	1.057198	-8.565447
412.009123	0.185608	0.480512	0.515114	95.634190	2.673398	0.061064	11.676322	-348.323678	11.676322	0.181296	0.713650	2.830000	2.965174	1.058578	-8.196435
417.943921	0.190628	0.485917	0.521972	95.621306	2.670068	0.059345	11.293087	-348.706913	11.293087	0.177478	0.710808	2.830000	2.971551	1.059898	-7.829385
423.964207	0.195772	0.491338	0.528904	95.608235	2.666893	0.057674	10.912480	-349.087520	10.912480	0.173775	0.707997	2.830000	2.977635	1.061160	-7.464219
430.071212	0.201044	0.496772	0.535911	95.594966	2.663870	0.056050	10.534410	-349.465590	10.534410	0.170183	0.705213	2.830000	2.983430	1.062364	-7.100862
436.266186	0.206446	0.502217	0.542993	95.581488	2.660996	0.054470	10.158784	-349.841216	10.158784	0.166699	0.702454	2.830000	2.988942	1.063512	-6.739236
442.550395	0.211980	0.507671	0.550150	95.567792	2.658266	0.052935	9.785510	-350.214490	9.785510	0.163319	0.699717	2.830000	2.994174	1.064604	-6.379267
448.925126	0.217649	0.513131	0.557382	95.553866	2.655677	0.051442	9.414499	-350.585501	9.414499	0.160041	0.696999	2.830000	2.999131	1.065642	-6.020881
455.391681	0.223456	0.518594	0.564688	95.539700	2.653225	0.049991	9.045660	-350.954340	9.045660	0.156860	0.694298	2.830000	3.003815	1.066626	-5.664004
461.951385	0.229402	0.524059	0.572069	95.525283	2.650909	0.048580	8.678906	-351.321094	8.678906	0.153775	0.691612	2.830000	3.008232	1.067558	-5.308562
468.605578	0.235490	0.529520	0.579523	95.510603	2.648724	0.047208	8.314148	-351.685852	8.314148	0.150782	0.688937	2.830000	3.012384	1.068439	-4.954483
475.355621	0.241723	0.534977	0.587052	95.495648	2.646669	0.045875	7.951300	-352.048700	7.951300	0.147878	0.686272	2.830000	3.016276	1.069269	-4.601696
482.202895	0.248103	0.540425	0.594655	95.480407	2.644740	0.044579	7.590275	-352.409725	7.590275	0.145061	0.683613	2.830000	3.019909	1.070048	-4.250129
489.148802	0.254632	0.545861	0.602330	95.464867	2.642936	0.043319	7.230988	-352.769012	7.230988	0.142328	0.680960	2.830000	3.023288	1.070779	-3.899712
496.194760	0.261314	0.551281	0.610079	95.449015	2.641254	0.042095	6.873354	-353.126646	6.873354	0.139677	0.678308	2.830000	3.026415	1.071461	-3.550376
503.342213	0.268149	0.556682	0.617899	95.432840	2.639691	0.040904	6.517289	-353.482711	6.517289	0.137104	0.675657	2.830000	3.029292	1.072095	-3.202050
510.592621	0.275142	0.562061	0.625792	95.416328	2.638247	0.039747	6.162710	-353.837290	6.162710	0.134608	0.673003	2.830000	3.031923	1.072682	-2.854666
517.947468	0.282293	0.567412	0.633755	95.399466	2.636919	0.038622	5.809533	-354.190467	5.809533	0.132186	0.670345	2.830000	3.034309	1.073222	-2.508157
525.408258	0.289606	0.572732	0.641789	95.382239	2.635705	0.037528	5.457677	-354.542323	5.457677	0.129836	0.667680	2.830000	3.036454	1.073716	-2.162455
532.976517	0.297082	0.578016	0.649892	95.364635	2.634604	0.036465	5.107059	-354.892941	5.107059	0.127556	0.665007	2.830000	3.038358	1.074165	-1.817493
540.653794	0.304723	0.583260	0.658064	95.346638	2.633615	0.035432	4.757599	-355.242401	4.757599	0.125343	0.662322	2.830000	3.040024	1.074569	-1.473206
548.441658	0.312532	0.588459	0.666304	95.328234	2.632735	0.034428	4.409215	-355.590785	4.409215	0.123196	0.659624	2.830000	3.041454	1.074928	-1.129528
556.341702	0.320510	0.593609	0.674610	95.309407	2.631965	0.033452	4.061827	-355.938173	4.061827	0.121113	0.656910	2.830000	3.042649	1.075242	-0.786394
564.355543	0.328660	0.598703	0.682981	95.290144	2.631302	0.032503	3.715356	-356.284644	3.715356	0.119092	0.654180	2.830000	3.043611	1.075513	-0.443739
572.484820	0.336983	0.603738	0.691417	95.270427	2.630746	0.031580	3.369721	-356.630279	3.369721	0.117130	0.651429	2.830000	3.044341	1.075741	-0.101500
580.731195	0.345481	0.608707	0.699915	95.250240	2.630295	0.030684	3.024844	-356.975156	3.024844	0.115227	0.648657	2.830000	3.044840	1.075925	0.240385
589.096355	0.354154	0.613605	0.708474	95.229567	2.629950	0.029812	2.680645	-357.319355	2.680645	0.113380	0.645861	2.830000	3.045110	1.076066	0.581981
597.582011	0.363006	0.618425	0.717094	95.208392	2.629709	0.028965	2.337047	-357.662953	2.337047	0.111587	0.643040	2.830000	3.045150	1.076165	0.923347
606.189899	0.372037	0.623163	0.725771	95.186695	2.629572	0.028142	1.993970	-358.006030	1.993970	0.109848	0.640190	2.830000	3.044963	1.076221	1.264546
614.921780	0.381248	0.627811	0.734504	95.164460	2.629539	0.027342	1.651338	-358.348662	1.651338	0.108160	0.637311	2.830000	3.044548	1.076234	1.605639
623.779440	0.390640	0.632364	0.743292	95.141669	2.629608	0.026564	1.309072	-358.690928	1.309072	0.106522	0.634399	2.830000	3.043906	1.076206	1.946685
632.764690	0.400214	0.636814	0.752132	95.118301	2.629780	0.025808	0.967095	-359.032905	0.967095	0.104933	0.631454	2.830000	3.043037	1.076136	2.287744
641.879368	0.409970	0.641154	0.761022	95.094339	2.630054	0.025073	0.625330	-359.374670	0.625330	0.103390	0.628473	2.830000	3.041942	1.076023	2.628875
651.125339	0.419910	0.645378	0.769959	95.069762	2.630431	0.024359	0.283700	-359.716300	0.283700	0.101894	0.625454	2.830000	3.040620	1.075869	2.970136
660.504493	0.430032	0.649478	0.778942	95.044550	2.630910	0.023664	-0.057873	-360.057873	-0.057873	0.100441	0.622394	2.830000	3.039072	1.075673	3.311585
670.018750	0.440338	0.653448	0.787967	95.018683	2.631492	0.022990	-0.399464	-360.399464	-0.399464	0.099031	0.619293	2.830000	3.037298	1.075436	3.653278
679.670056	0.450827	0.657278	0.797031	94.992138	2.632176	0.022334	-0.741152	-360.741152	-0.741152	0.097663	0.616148	2.830000	3.035297	1.075156	3.995273
689.460384	0.461497	0.660961	0.806132	94.964894	2.632963	0.021696	-1.083012	-361.083012	-1.083012	0.096336	0.612956	2.830000	3.033069	1.074835	4.337624
699.391737	0.472350	0.664490	0.815267	94.936928	2.633853	0.021077	-1.425120	-361.425120	-1.425120	0.095048	0.609717	2.830000	3.030614	1.074471	4.680388
709.466146	0.483382	0.667855	0.824432	94.908218	2.634848	0.020474	-1.767554	-361.767554	-1.767554	0.093797	0.606428	2.830000	3.027930	1.074066	5.023618
719.685673	0.494594	0.671049	0.833624	94.878740	2.635946	0.019889	-2.110390	-362.110390	-2.110390	0.092584	0.603087	2.830000	3.025018	1.073618	5.367368
730.052407	0.505982	0.674063	0.842840	94.848469	2.637149	0.019320	-2.453703	-362.453703	-2.453703	0.091407	0.599692	2.830000	3.021876	1.073129	5.711691
740.568469	0.517546	0.676887	0.852074	94.817381	2.638458	0.018767	-2.797572	-362.797572	-2.797572	0.090265	0.596241	2.830000	3.018504	1.072596	6.056641
751.236010	0.529282	0.679514	0.861324	94.785450	2.639873	0.018229	-3.142072	-363.142072	-3.142072	0.089156	0.592732	2.830000	3.014900	1.072021	6.402268
762.057212	0.541187	0.681933	0.870584	94.752649	2.641396	0.017707	-3.487279	-363.487279	-3.487279	0.088080	0.589164	2.830000	3.011063	1.071403	6.748623
773.034288	0.553259	0.684136	0.879851	94.718953	2.643026	0.017199	-3.833272	-363.833272	-3.833272	0.087036	0.585534	2.830000	3.006993	1.070742	7.095757
784.169484	0.565494	0.686113	0.889120	94.684333	2.644766	0.016706	-4.180126	-364.180126	-4.180126	0.086023	0.581841	2.830000	3.002688	1.070038	7.443719
795.465078	0.577887	0.687855	0.898386	94.648762	2.646616	0.016226	-4.527919	-364.527919	-4.527919	0.085040	0.578083	2.830000	2.998146	1.069290	7.792559
806.923378	0.590433	0.689352	0.907644	94.612211	2.648578	0.015760	-4.876728	-364.876728	-4.876728	0.084087	0.574257	2.830000	2.993366	1.068498	8.142323
818.546731	0.603129	0.690594	0.916888	94.574649	2.650653	0.015306	-5.226631	-365.226631	-5.226631	0.083162	0.570363	2.830000	2.988348	1.067662	8.493060
830.337512	0.615967	0.691571	0.926114	94.536047	2.652842	0.014866	-5.577706	-365.577706	-5.577706	0.082264	0.566398	2.830000	2.983088	1.066780	8.844815
842.298134	0.628942	0.692274	0.935314	94.496374	2.655147	0.014438	-5.930031	-365.930031	-5.930031	0.081393	0.562360	2.830000	2.977586	1.065854	9.197634
854.431043	0.642048	0.692693	0.944483	94.455598	2.657569	0.014022	-6.283686	-366.283686	-6.283686	0.080549	0.558248	2.830000	2.971840	1.064883	9.551561
866.738721	0.655276	0.692817	0.953616	94.413686	2.660110	0.013617	-6.638750	-366.638750	-6.638750	0.079730	0.554060	2.830000	2.965848	1.063866	9.906641
879.223685	0.668619	0.692638	0.962704	94.370606	2.662773	0.013224	-6.995304	-366.995304	-6.995304	0.078936	0.549795	2.830000	2.959608	1.062802	10.262916
891.888489	0.682068	0.692144	0.971741	94.326324	2.665557	0.012842	-7.353429	-367.353429	-7.353429	0.078166	0.545451	2.830000	2.953118	1.061692	10.620428
904.735724	0.695615	0.691327	0.980721	94.280805	2.668466	0.012470	-7.713208	-367.713208	-7.713208	0.077420	0.541026	2.830000	2.946377	1.060534	10.979217
917.768017	0.709249	0.690177	0.989636	94.234014	2.671502	0.012109	-8.074724	-368.074724	-8.074724	0.076697	0.536519	2.830000	2.939382	1.059329	11.339324
930.988035	0.722960	0.688684	0.998477	94.185915	2.674667	0.011758	-8.438062	-368.438062	-8.438062	0.075997	0.531928	2.830000	2.932132	1.058076	11.700788
944.398480	0.736737	0.686839	1.007238	94.136472	2.677962	0.011417	-8.803310	-368.803310	-8.803310	0.075320	0.527252	2.830000	2.924624	1.056774	12.063645
958.002097	0.750567	0.684632	1.015910	94.085647	2.681390	0.011086	-9.170557	-369.170557	-9.170557	0.074665	0.522490	2.830000	2.916857	1.055423	12.427934
971.801667	0.764439	0.682056	1.024484	94.033403	2.684954	0.010764	-9.539897	-369.539897	-9.539897	0.074032	0.517641	2.830000	2.908828	1.054022	12.793689
985.800014	0.778339	0.679102	1.032952	93.979701	2.688656	0.010450	-9.911423	-369.911423	-9.911423	0.073422	0.512703	2.830000	2.900535	1.052571	13.160945
1000.000000	0.792252	0.675760	1.041305	93.924502	2.692498	0.010146	-10.285237	-370.285237	-10.285237	0.072833	0.507675	2.830000	2.891977	1.051069	13.529735
1014.404530	0.806165	0.672025	1.049533	93.867769	2.696484	0.009850	-10.661443	-370.661443	-10.661443	0.072268	0.502557	2.830000	2.883151	1.049515	13.900091
1029.016551	0.820061	0.667888	1.057626	93.809459	2.700615	0.009562	-11.040153	-371.040153	-11.040153	0.071725	0.497347	2.830000	2.874054	1.047909	14.272044
1043.839051	0.833924	0.663342	1.065576	93.749534	2.704895	0.009283	-11.421486	-371.421486	-11.421486	0.071206	0.492046	2.830000	2.864686	1.046251	14.645622
1058.875063	0.847737	0.658382	1.073370	93.687954	2.709327	0.009011	-11.805569	-371.805569	-11.805569	0.070712	0.486651	2.830000	2.855044	1.044540	15.020855
1074.127661	0.861481	0.653002	1.081000	93.624677	2.713913	0.008747	-12.192545	-372.192545	-12.192545	0.070244	0.481164	2.830000	2.845127	1.042775	15.397769
1089.599965	0.875140	0.647197	1.088455	93.559662	2.718658	0.008490	-12.582567	-372.582567	-12.582567	0.069805	0.475583	2.830000	2.834931	1.040955	15.776388
1105.295141	0.888692	0.640963	1.095722	93.492869	2.723563	0.008240	-12.975810	-372.975810	-12.975810	0.069396	0.469909	2.830000	2.824455	1.039080	16.156737
1121.216399	0.902118	0.634296	1.102792	93.424254	2.728633	0.007998	-13.372470	-373.372470	-13.372470	0.069021	0.464141	2.830000	2.813698	1.037149	16.538838
1137.366994	0.915398	0.627196	1.109652	93.353776	2.733871	0.007762	-13.772773	-373.772773	-13.772773	0.068684	0.458280	2.830000	2.802657	1.035162	16.922711
1153.750232	0.928509	0.619659	1.116291	93.281388	2.739280	0.007533	-14.176979	-374.176979	-14.176979	0.068390	0.452325	2.830000	2.791331	1.033118	17.308376
1170.369462	0.941429	0.611686	1.122697	93.207046	2.744864	0.007310	-14.585395	-374.585395	-14.585395	0.068146	0.446279	2.830000	2.779718	1.031017	17.695850
1187.228084	0.954136	0.603277	1.128858	93.130696	2.750627	0.007093	-14.998384	-374.998384	-14.998384	0.067960	0.440141	2.830000	2.767817	1.028856	18.085149
1204.329547	0.966607	0.594436	1.134761	93.052282	2.756572	0.006883	-15.416378	-375.416378	-15.416378	0.067841	0.433912	2.830000	2.755626	1.026637	18.476286
1221.677349	0.978817	0.585164	1.140394	92.971735	2.762704	0.006678	-15.839893	-375.839893	-15.839893	0.067802	0.427594	2.830000	2.743143	1.024359	18.869274
1239.275037	0.990742	0.575467	1.145745	92.888970	2.769027	0.006479	-16.269548	-376.269548	-16.269548	0.067856	0.421188	2.830000	2.730369	1.022020	19.264124
1257.126212	1.002357	0.565351	1.150800	92.803873	2.775544	0.006286	-16.706078	-376.706078	-16.706078	0.068018	0.414697	2.830000	2.717300	1.019620	19.660842
1275.234525	1.013638	0.554823	1.155548	92.716294	2.782260	0.006098	-17.150341	-377.150341	-17.150341	0.068301	0.408121	2.830000	2.703938	1.017159	20.059437
1293.603680	1.024558	0.543893	1.159974	92.626016	2.789180	0.005915	-17.603312	-377.603312	-17.603312	0.068716	0.401464	2.830000	2.690280	1.014635	20.459913
1312.237433	1.035093	0.532572	1.164067	92.532737	2.796308	0.005737	-18.066026	-378.066026	-18.066026	0.069258	0.394727	2.830000	2.676326	1.012049	20.862271
1331.139597	1.045217	0.520872	1.167813	92.436023	2.803648	0.005565	-18.539457	-378.539457	-18.539457	0.069898	0.387915	2.830000	2.662075	1.009399	21.266513
1350.314038	1.054905	0.508807	1.171200	92.335273	2.811205	0.005397	-19.024256	-379.024256	-19.024256	0.070558	0.381029	2.830000	2.647528	1.006686	21.672636
1369.764677	1.064130	0.496395	1.174215	92.229690	2.818984	0.005234	-19.520299	-379.520299	-19.520299	0.071082	0.374073	2.830000	2.632683	1.003908	22.080637
1389.495494	1.072869	0.483653	1.176846	92.118292	2.826990	0.005075	-20.026001	-380.026001	-20.026001	0.071215	0.367050	2.830000	2.617542	1.001065	22.490510
1409.510524	1.081095	0.470601	1.179081	92.000032	2.835228	0.004921	-20.537511	-380.537511	-20.537511	0.070612	0.359963	2.830000	2.602105	0.998156	22.902246
1429.813862	1.088787	0.457262	1.180909	91.874073	2.843702	0.004771	-21.048183	-381.048183	-21.048183	0.068923	0.352815	2.830000	2.586371	0.995182	23.315836
1450.409659	1.095919	0.443661	1.182317	91.740204	2.852419	0.004626	-21.549045	-381.549045	-21.549045	0.065985	0.345610	2.830000	2.570342	0.992140	23.731267
1471.302129	1.102470	0.429822	1.183295	91.599218	2.861383	0.004484	-22.030895	-382.030895	-22.030895	0.062028	0.338352	2.830000	2.554019	0.989032	24.148525
1492.495545	1.108418	0.415776	1.183833	91.452933	2.870599	0.004346	-22.487572	-382.487572	-22.487572	0.057701	0.331046	2.830000	2.537402	0.985857	24.567595
1513.994242	1.113743	0.401552	1.183920	91.303687	2.880075	0.004213	-22.918532	-382.918532	-22.918532	0.053806	0.323698	2.830000	2.520494	0.982613	24.988456
1535.802619	1.118427	0.387184	1.183550	91.153544	2.889814	0.004083	-23.328839	-383.328839	-23.328839	0.050917	0.316317	2.830000	2.503295	0.979302	25.411087
1557.925134	1.122452	0.372705	1.182712	91.003719	2.899823	0.003956	-23.726687	-383.726687	-23.726687	0.049181	0.308910	2.830000	2.485808	0.975921	25.835463
1580.366314	1.125804	0.358154	1.181401	90.854490	2.910109	0.003834	-24.120344	-384.120344	-24.120344	0.048409	0.301485	2.830000	2.468035	0.972472	26.261557
1603.130749	1.128469	0.343567	1.179611	90.705462	2.920676	0.003714	-24.516206	-384.516206	-24.516206	0.048279	0.294050	2.830000	2.449978	0.968954	26.689337
1626.223094	1.130438	0.328987	1.177337	90.555927	2.931530	0.003598	-24.918285	-384.918285	-24.918285	0.048489	0.286614	2.830000	2.431641	0.965366	27.118773
1649.648074	1.131701	0.314455	1.174576	90.405126	2.942679	0.003486	-25.328577	-385.328577	-25.328577	0.048825	0.279184	2.830000	2.413026	0.961709	27.549827
1673.410480	1.132253	0.300015	1.171326	90.252385	2.954128	0.003376	-25.747703	-385.747703	-25.747703	0.049157	0.271768	2.830000	2.394137	0.957981	27.982465
1697.515172	1.132092	0.285714	1.167589	90.097167	2.965884	0.003270	-26.175475	-386.175475	-26.175475	0.049419	0.264374	2.830000	2.374978	0.954184	28.416645
1721.967081	1.131218	0.271596	1.163365	89.939068	2.977953	0.003166	-26.611300	-386.611300	-26.611300	0.049585	0.257010	2.830000	2.355553	0.950317	28.852325
1746.771208	1.129636	0.257711	1.158660	89.777801	2.990342	0.003066	-27.054424	-387.054424	-27.054424	0.049648	0.249686	2.830000	2.335866	0.946380	29.289462
1771.932627	1.127354	0.244107	1.153480	89.613167	3.003056	0.002968	-27.504063	-387.504063	-27.504063	0.049615	0.242410	2.830000	2.315921	0.942373	29.728008
1797.456484	1.124383	0.230834	1.147833	89.445041	3.016104	0.002873	-27.959472	-387.959472	-27.959472	0.049496	0.235192	2.830000	2.295725	0.938296	30.167914
1823.348001	1.120739	0.217940	1.141733	89.273350	3.029492	0.002781	-28.419969	-388.419969	-28.419969	0.049302	0.228039	2.830000	2.275282	0.934150	30.609128
1849.612473	1.116441	0.205476	1.135192	89.098066	3.043226	0.002692	-28.884943	-388.884943	-28.884943	0.049042	0.220963	2.830000	2.254597	0.929934	31.051597
1876.255272	1.111515	0.193491	1.128231	88.919197	3.057314	0.002605	-29.353851	-389.353851	-29.353851	0.048727	0.213971	2.830000	2.233678	0.925649	31.495265
1903.281848	1.105988	0.182032	1.120868	88.736778	3.071763	0.002520	-29.826205	-389.826205	-29.826205	0.048363	0.207074	2.830000	2.212530	0.921295	31.940072
1930.697729	1.099895	0.171149	1.113131	88.550873	3.086579	0.002438	-30.301569	-390.301569	-30.301569	0.047959	0.200281	2.830000	2.191160	0.916873	32.385959
1958.508523	1.093272	0.160885	1.105046	88.361571	3.101771	0.002359	-30.779548	-390.779548	-30.779548	0.047519	0.193601	2.830000	2.169575	0.912382	32.832863
1986.719919	1.086162	0.151285	1.096647	88.168983	3.117344	0.002282	-31.259781	-391.259781	-31.259781	0.047048	0.187042	2.830000	2.147782	0.907824	33.280719
2015.337686	1.078612	0.142390	1.087970	87.973247	3.133308	0.002206	-31.741935	-391.741935	-31.741935	0.046549	0.180615	2.830000	2.125789	0.903199	33.729462
2044.367679	1.070674	0.134237	1.079056	87.774520	3.149668	0.002134	-32.225696	-392.225696	-32.225696	0.046027	0.174328	2.830000	2.103604	0.898507	34.179022
2073.815835	1.062404	0.126862	1.069952	87.572988	3.166433	0.002063	-32.710772	-392.710772	-32.710772	0.045483	0.168188	2.830000	2.081234	0.893750	34.629330
2103.688178	1.053862	0.120294	1.060705	87.368856	3.183610	0.001994	-33.196884	-393.196884	-33.196884	0.044920	0.162204	2.830000	2.058688	0.888928	35.080316
2133.990819	1.045112	0.114559	1.051372	87.162358	3.201207	0.001928	-33.683764	-393.683764	-33.683764	0.044341	0.156383	2.830000	2.035975	0.884041	35.531905
2164.729954	1.036223	0.109677	1.042011	86.953749	3.219231	0.001863	-34.171156	-394.171156	-34.171156	0.043746	0.150732	2.830000	2.013104	0.879092	35.984023
2195.911873	1.027265	0.105662	1.032685	86.743310	3.237690	0.001801	-34.658813	-394.658813	-34.658813	0.043137	0.145257	2.830000	1.990084	0.874080	36.436596
2227.542952	1.018312	0.102524	1.023460	86.531343	3.256592	0.001740	-35.146492	-395.146492	-35.146492	0.042516	0.139965	2.830000	1.966925	0.869007	36.889547
2259.629662	1.009441	0.100264	1.014409	86.318175	3.275944	0.001681	-35.633961	-395.633961	-35.633961	0.041885	0.134858	2.830000	1.943635	0.863873	37.342798
2292.178566	1.000730	0.098875	1.005603	86.104150	3.295755	0.001624	-36.120991	-396.120991	-36.120991	0.041243	0.129943	2.830000	1.920225	0.858680	37.796271
2325.196322	0.992258	0.098345	0.997120	85.889632	3.316032	0.001568	-36.607359	-396.607359	-36.607359	0.040593	0.125222	2.830000	1.896705	0.853430	38.249888
2358.689683	0.984104	0.098652	0.989036	85.674996	3.336784	0.001515	-37.092846	-397.092846	-37.092846	0.039935	0.120697	2.830000	1.873084	0.848122	38.703568
2392.665500	0.976346	0.099766	0.981430	85.460628	3.358017	0.001462	-37.577236	-397.577236	-37.577236	0.039270	0.116371	2.830000	1.849374	0.842759	39.157232
2427.130723	0.969063	0.101650	0.974380	85.246921	3.379741	0.001412	-38.060318	-398.060318	-38.060318	0.038600	0.112243	2.830000	1.825584	0.837342	39.610800
2462.092401	0.962329	0.104257	0.967960	85.034262	3.401964	0.001363	-38.541880	-398.541880	-38.541880	0.037923	0.108314	2.830000	1.801724	0.831872	40.064191
2497.557686	0.956215	0.107530	0.962242	84.823036	3.424693	0.001316	-39.021710	-399.021710	-39.021710	0.037242	0.104583	2.830000	1.777807	0.826351	40.517325
2533.533832	0.950787	0.111407	0.957292	84.613612	3.447938	0.001270	-39.499595	-399.499595	-39.499595	0.036556	0.101046	2.830000	1.753840	0.820780	40.970123
2570.028197	0.946108	0.115814	0.953170	84.406335	3.471705	0.001226	-39.975314	-399.975314	-39.975314	0.035864	0.097701	2.830000	1.729837	0.815161	41.422503
2607.048246	0.942231	0.120671	0.949927	84.201528	3.496005	0.001183	-40.448641	-400.448641	-40.448641	0.035168	0.094543	2.830000	1.705806	0.809496	41.874387
2644.601552	0.939203	0.125892	0.947603	83.999477	3.520844	0.001141	-40.919336	-400.919336	-40.919336	0.034466	0.091568	2.830000	1.681760	0.803785	42.325696
2682.695795	0.937061	0.131380	0.946226	83.800430	3.546232	0.001101	-41.387147	-401.387147	-41.387147	0.033759	0.088768	2.830000	1.657707	0.798030	42.776350
2721.338768	0.935832	0.137037	0.945812	83.604599	3.572177	0.001062	-41.851809	-401.851809	-41.851809	0.033045	0.086138	2.830000	1.633660	0.792234	43.226273
2760.538375	0.935532	0.142757	0.946362	83.412151	3.598687	0.001024	-42.313049	-402.313049	-42.313049	0.032325	0.083669	2.830000	1.609628	0.786398	43.675386
2800.302634	0.936166	0.148431	0.947860	83.223223	3.625773	0.000988	-42.770604	-402.770604	-42.770604	0.031602	0.081351	2.830000	1.585622	0.780523	44.123613
2840.639679	0.937724	0.153950	0.950277	83.037915	3.653441	0.000953	-43.224245	-403.224245	-43.224245	0.030880	0.079177	2.830000	1.561652	0.774612	44.570880
2881.557759	0.940183	0.159201	0.953566	82.856303	3.681702	0.000919	-43.673837	-403.673837	-43.673837	0.030167	0.077136	2.830000	1.537728	0.768666	45.017111
2923.065245	0.943508	0.164074	0.957668	82.678435	3.710564	0.000886	-44.119408	-404.119408	-44.119408	0.029478	0.075218	2.830000	1.513861	0.762687	45.462233
2965.170628	0.947647	0.168462	0.962504	82.504310	3.740036	0.000854	-44.561246	-404.561246	-44.561246	0.028831	0.073410	2.830000	1.490059	0.756677	45.906173
3007.882518	0.952535	0.172263	0.967986	82.333845	3.770128	0.000823	-44.999967	-404.999967	-44.999967	0.028248	0.071703	2.830000	1.466334	0.750638	46.348860
3051.209653	0.958093	0.175381	0.974013	82.166814	3.800849	0.000794	-45.436536	-405.436536	-45.436536	0.027746	0.070085	2.830000	1.442695	0.744570	46.790224
3095.160895	0.964228	0.177729	0.980471	82.002786	3.832209	0.000765	-45.872157	-405.872157	-45.872157	0.027332	0.068544	2.830000	1.419150	0.738478	47.230195
3139.745234	0.970835	0.179233	0.987241	81.841093	3.864216	0.000737	-46.308049	-406.308049	-46.308049	0.026995	0.067068	2.830000	1.395710	0.732361	47.668705
3184.971790	0.977795	0.179830	0.994194	81.680855	3.896880	0.000710	-46.745172	-406.745172	-46.745172	0.026707	0.065647	2.830000	1.372383	0.726222	48.105688
3230.849813	0.984983	0.179473	1.001200	81.521066	3.930213	0.000684	-47.184019	-407.184019	-47.184019	0.026436	0.064270	2.830000	1.349178	0.720063	48.541076
3277.388687	0.992262	0.178134	1.008125	81.360706	3.964222	0.000659	-47.624573	-407.624573	-47.624573	0.026152	0.062926	2.830000	1.326103	0.713885	48.974806
3324.597932	0.999491	0.175801	1.014834	81.198830	3.998919	0.000635	-48.066421	-408.066421	-48.066421	0.025839	0.061606	2.830000	1.303168	0.707691	49.406813
3372.487204	1.006527	0.172483	1.021198	81.034617	4.034313	0.000612	-48.508948	-408.508948	-48.508948	0.025493	0.060300	2.830000	1.280379	0.701482	49.837035
3421.066299	1.013223	0.168210	1.027091	80.867380	4.070415	0.000590	-48.951505	-408.951505	-48.951505	0.025115	0.059001	2.830000	1.257746	0.695261	50.265410
3470.345152	1.019439	0.163036	1.032394	80.696540	4.107236	0.000568	-49.393523	-409.393523	-49.393523	0.024715	0.057702	2.830000	1.235274	0.689028	50.691876
3520.333844	1.025039	0.157034	1.036998	80.521612	4.144786	0.000547	-49.834559	-409.834559	-49.834559	0.024300	0.056397	2.830000	1.212973	0.682786	51.116375
3571.042600	1.029897	0.150298	1.040806	80.342182	4.183075	0.000527	-50.274296	-410.274296	-50.274296	0.023877	0.055081	2.830000	1.190848	0.676536	51.538848
3622.481792	1.033900	0.142946	1.043735	80.157904	4.222116	0.000507	-50.712524	-410.712524	-50.712524	0.023453	0.053751	2.830000	1.168907	0.670280	51.959236
3674.661941	1.036953	0.135111	1.045718	79.968496	4.261917	0.000488	-51.149107	-411.149107	-51.149107	0.023031	0.052404	2.830000	1.147156	0.664020	52.377483
3727.593720	1.038981	0.126946	1.046708	79.773747	4.302492	0.000470	-51.583961	-411.583961	-51.583961	0.022612	0.051041	2.830000	1.125602	0.657758	52.793532
3781.287957	1.039934	0.118614	1.046677	79.573524	4.343851	0.000453	-52.017034	-412.017034	-52.017034	0.022198	0.049661	2.830000	1.104250	0.651496	53.207329
3835.755635	1.039786	0.110290	1.045619	79.367781	4.386006	0.000436	-52.448287	-412.448287	-52.448287	0.021790	0.048268	2.830000	1.083107	0.645234	53.618820
3891.007893	1.038542	0.102155	1.043554	79.156570	4.428967	0.000419	-52.877689	-412.877689	-52.877689	0.021388	0.046863	2.830000	1.062178	0.638975	54.027951
3947.056035	1.036236	0.094389	1.040526	78.940049	4.472747	0.000404	-53.305210	-413.305210	-53.305210	0.020991	0.045452	2.830000	1.041468	0.632721	54.434671
4003.911523	1.032934	0.087169	1.036605	78.718484	4.517358	0.000388	-53.730819	-413.730819	-53.730819	0.020599	0.044040	2.830000	1.020982	0.626472	54.838929
4061.585988	1.028733	0.080661	1.031890	78.492258	4.562811	0.000374	-54.154487	-414.154487	-54.154487	0.020213	0.042633	2.830000	1.000725	0.620232	55.240675
4120.091227	1.023760	0.075016	1.026505	78.261867	4.609118	0.000360	-54.576182	-414.576182	-54.576182	0.019832	0.041238	2.830000	0.980701	0.614000	55.639861
4179.439206	1.018171	0.070363	1.020599	78.027916	4.656291	0.000346	-54.995872	-414.995872	-54.995872	0.019457	0.039862	2.830000	0.960914	0.607780	56.036440
4239.642065	1.012143	0.066803	1.014345	77.791110	4.704343	0.000333	-55.413521	-415.413521	-55.413521	0.019086	0.038514	2.830000	0.941369	0.601572	56.430366
4300.712118	1.005877	0.064405	1.007936	77.552238	4.753286	0.000320	-55.829081	-415.829081	-55.829081	0.018719	0.037199	2.830000	0.922068	0.595378	56.821596
4362.661857	0.999583	0.063202	1.001579	77.312153	4.803131	0.000308	-56.242478	-416.242478	-56.242478	0.018355	0.035926	2.830000	0.903016	0.589199	57.210087
4425.503952	0.993483	0.063188	0.995491	77.071749	4.853892	0.000296	-56.653599	-416.653599	-56.653599	0.017991	0.034701	2.830000	0.884214	0.583037	57.595798
4489.251258	0.987796	0.064311	0.989888	76.831932	4.905580	0.000285	-57.062274	-417.062274	-57.062274	0.017625	0.033529	2.830000	0.865666	0.576894	57.978692
4553.916814	0.982733	0.066479	0.984979	76.593591	4.958209	0.000274	-57.468268	-417.468268	-57.468268	0.017255	0.032415	2.830000	0.847375	0.570771	58.358732
4619.513847	0.978485	0.069559	0.980955	76.357563	5.011791	0.000263	-57.871280	-417.871280	-57.871280	0.016877	0.031363	2.830000	0.829342	0.564668	58.735882
4686.055775	0.975221	0.073377	0.977977	76.124602	5.066339	0.000253	-58.270967	-418.270967	-58.270967	0.016492	0.030375	2.830000	0.811570	0.558589	59.110111
4753.556208	0.973071	0.077725	0.976170	75.895334	5.121866	0.000243	-58.666975	-418.666975	-58.666975	0.016101	0.029451	2.830000	0.794059	0.552533	59.481389
4822.028953	0.972124	0.082370	0.975608	75.670218	5.178384	0.000234	-59.058976	-419.058976	-59.058976	0.015705	0.028590	2.830000	0.776812	0.546503	59.849688
4891.488015	0.972422	0.087057	0.976311	75.449502	5.235908	0.000225	-59.446701	-419.446701	-59.446701	0.015308	0.027790	2.830000	0.759830	0.540498	60.214981
4961.947603	0.973949	0.091525	0.978240	75.233186	5.294450	0.000216	-59.829956	-419.829956	-59.829956	0.014912	0.027047	2.830000	0.743112	0.534522	60.577247
5033.422128	0.976637	0.095515	0.981297	75.021006	5.354023	0.000207	-60.208615	-420.208615	-60.208615	0.014522	0.026355	2.830000	0.726661	0.528574	60.936462
5105.926210	0.980360	0.098784	0.985324	74.812426	5.414642	0.000199	-60.582594	-420.582594	-60.582594	0.014136	0.025709	2.830000	0.710475	0.522657	61.292609
5179.474679	0.984937	0.101118	0.990114	74.606663	5.476321	0.000191	-60.951826	-420.951826	-60.951826	0.013756	0.025100	2.830000	0.694556	0.516770	61.645670
5254.082580	0.990143	0.102343	0.995418	74.402730	5.539073	0.000184	-61.316224	-421.316224	-61.316224	0.013380	0.024521	2.830000	0.678902	0.510916	61.995630
5329.765172	0.995711	0.102339	1.000956	74.199497	5.602912	0.000177	-61.675673	-421.675673	-61.675673	0.013007	0.023964	2.830000	0.663515	0.505094	62.342476
5406.537936	1.001349	0.101044	1.006434	73.995769	5.667854	0.000170	-62.030050	-422.030050	-62.030050	0.012638	0.023421	2.830000	0.648392	0.499307	62.686197
5484.416576	1.006753	0.098471	1.011557	73.790357	5.733912	0.000163	-62.379273	-422.379273	-62.379273	0.012276	0.022885	2.830000	0.633534	0.493555	63.026781
5563.417021	1.011622	0.094699	1.016044	73.582145	5.801103	0.000157	-62.723374	-422.723374	-62.723374	0.011925	0.022350	2.830000	0.618939	0.487838	63.364221
5643.555431	1.015678	0.089883	1.019647	73.370137	5.869440	0.000150	-63.062560	-423.062560	-63.062560	0.011593	0.021809	2.830000	0.604606	0.482158	63.698510
5724.848197	1.018682	0.084244	1.022159	73.153490	5.938940	0.000145	-63.397215	-423.397215	-63.397215	0.011282	0.021259	2.830000	0.590534	0.476516	64.029640
5807.311946	1.020453	0.078059	1.023434	72.931549	6.009618	0.000139	-63.727844	-423.727844	-63.727844	0.010997	0.020699	2.830000	0.576721	0.470912	64.357607
5890.963548	1.020881	0.071650	1.023392	72.703882	6.081490	0.000133	-64.054966	-424.054966	-64.054966	0.010733	0.020126	2.830000	0.563166	0.465347	64.682407
5975.820111	1.019938	0.065361	1.022030	72.470329	6.154572	0.000128	-64.379006	-424.379006	-64.379006	0.010485	0.019543	2.830000	0.549867	0.459821	65.004035
6061.898993	1.017689	0.059542	1.019429	72.231054	6.228880	0.000123	-64.700217	-424.700217	-64.700217	0.010248	0.018953	2.830000	0.536822	0.454335	65.322491
6149.217802	1.014286	0.054519	1.015750	71.986574	6.304432	0.000118	-65.018655	-425.018655	-65.018655	0.010013	0.018358	2.830000	0.524029	0.448891	65.637771
6237.794396	1.009968	0.050574	1.011234	71.737773	6.381243	0.000113	-65.334183	-425.334183	-65.334183	0.009777	0.017766	2.830000	0.511485	0.443487	65.949875
6327.646895	1.005048	0.047923	1.006189	71.485886	6.459331	0.000109	-65.646504	-425.646504	-65.646504	0.009533	0.017182	2.830000	0.499190	0.438126	66.258803
6418.793677	0.999889	0.046688	1.000978	71.232444	6.538713	0.000104	-65.955203	-425.955203	-65.955203	0.009281	0.016613	2.830000	0.487139	0.432807	66.564557
6511.253386	0.994886	0.046892	0.995991	70.979199	6.619405	0.000100	-66.259798	-426.259798	-66.259798	0.009020	0.016063	2.830000	0.475332	0.427531	66.867139
6605.044933	0.990432	0.048444	0.991616	70.728015	6.701427	0.000096	-66.559835	-426.559835	-66.559835	0.008752	0.015540	2.830000	0.463764	0.422298	67.166552
6700.187504	0.986887	0.051145	0.988211	70.480736	6.784794	0.000092	-66.855029	-426.855029	-66.855029	0.008487	0.015048	2.830000	0.452435	0.417109	67.462800
6796.700558	0.984544	0.054694	0.986062	70.239016	6.869525	0.000089	-67.145492	-427.145492	-67.145492	0.008238	0.014588	2.830000	0.441340	0.411964	67.755891
6894.603838	0.983604	0.058709	0.985354	70.004084	6.955639	0.000085	-67.431960	-427.431960	-67.431960	0.008026	0.014162	2.830000	0.430477	0.406864	68.045832
6993.917368	0.984148	0.062761	0.986147	69.776472	7.043152	0.000082	-67.715811	-427.715811	-67.715811	0.007862	0.013770	2.830000	0.419844	0.401809	68.332630
7094.661463	0.986126	0.066402	0.988359	69.555788	7.132085	0.000078	-67.998631	-427.998631	-67.998631	0.007740	0.013408	2.830000	0.409437	0.396798	68.616298
7196.856730	0.989352	0.069215	0.991770	69.340724	7.222455	0.000075	-68.281472	-428.281472	-68.281472	0.007636	0.013072	2.830000	0.399253	0.391834	68.896845
7300.524071	0.993517	0.070849	0.996040	69.129340	7.314283	0.000072	-68.564405	-428.564405	-68.564405	0.007523	0.012757	2.830000	0.389290	0.386914	69.174286
7405.684692	0.998208	0.071062	1.000734	68.919427	7.407586	0.000069	-68.846752	-428.846752	-68.846752	0.007390	0.012455	2.830000	0.379543	0.382041	69.448634
7512.360102	1.002948	0.069750	1.005370	68.708769	7.502386	0.000066	-69.127655	-429.127655	-69.127655	0.007238	0.012162	2.830000	0.370011	0.377213	69.719903
7620.572122	1.007241	0.066968	1.009465	68.495284	7.598701	0.000064	-69.406497	-429.406497	-69.406497	0.007078	0.011870	2.830000	0.360689	0.372432	69.988110
7730.342884	1.010626	0.062930	1.012583	68.277143	7.696554	0.000061	-69.683017	-429.683017	-69.683017	0.006918	0.011575	2.830000	0.351574	0.367697	70.253270
7841.694843	1.012729	0.057998	1.014388	68.052907	7.795963	0.000059	-69.957251	-429.957251	-69.957251	0.006766	0.011273	2.830000	0.342664	0.363008	70.515401
7954.650775	1.013311	0.052648	1.014677	67.821668	7.896951	0.000056	-70.229423	-430.229423	-70.229423	0.006623	0.010962	2.830000	0.333955	0.358366	70.774518
8069.233784	1.012305	0.047417	1.013415	67.583162	7.999539	0.000054	-70.499852	-430.499852	-70.499852	0.006491	0.010644	2.830000	0.325443	0.353770	71.030640
8185.467307	1.009834	0.042845	1.010743	67.337821	8.103748	0.000052	-70.768849	-430.768849	-70.768849	0.006368	0.010319	2.830000	0.317125	0.349221	71.283784
8303.375120	1.006206	0.039409	1.006978	67.086750	8.209601	0.000050	-71.036579	-431.036579	-71.036579	0.006247	0.009992	2.830000	0.308999	0.344718	71.533967
8422.981339	1.001886	0.037453	1.002586	66.831644	8.317120	0.000048	-71.302867	-431.302867	-71.302867	0.006120	0.009669	2.830000	0.301060	0.340262	71.781206
8544.310429	0.997441	0.037137	0.998132	66.574664	8.426328	0.000046	-71.567029	-431.567029	-71.567029	0.005972	0.009355	2.830000	0.293306	0.335852	72.025522
8667.387209	0.993472	0.038409	0.994214	66.318270	8.537246	0.000044	-71.827895	-431.827895	-71.827895	0.005799	0.009055	2.830000	0.285733	0.331489	72.266931
8792.236851	0.990530	0.040992	0.991378	66.064962	8.649900	0.000042	-72.084145	-432.084145	-72.084145	0.005601	0.008773	2.830000	0.278338	0.327171	72.505453
8918.884894	0.989036	0.044418	0.990033	65.816886	8.764310	0.000040	-72.334770	-432.334770	-72.334770	0.005392	0.008513	2.830000	0.271118	0.322900	72.741109
9047.357242	0.989207	0.048081	0.990375	65.575383	8.880503	0.000039	-72.579325	-432.579325	-72.579325	0.005185	0.008274	2.830000	0.264069	0.318676	72.973919
9177.680175	0.991016	0.051327	0.992344	65.340645	8.998501	0.000037	-72.817854	-432.817854	-72.817854	0.004986	0.008055	2.830000	0.257188	0.314497	73.203904
9309.880348	0.994179	0.053548	0.995620	65.111631	9.118329	0.000036	-73.050658	-433.050658	-73.050658	0.004800	0.007853	2.830000	0.250472	0.310364	73.431086
9443.984802	0.998188	0.054285	0.999663	64.886248	9.240012	0.000034	-73.278116	-433.278116	-73.278116	0.004626	0.007662	2.830000	0.243918	0.306277	73.655490
9580.020968	1.002381	0.053313	1.003798	64.661724	9.363575	0.000033	-73.500632	-433.500632	-73.500632	0.004464	0.007477	2.830000	0.237522	0.302235	73.877137
9718.016671	1.006046	0.050693	1.007323	64.435096	9.489044	0.000031	-73.718665	-433.718665	-73.718665	0.004316	0.007293	2.830000	0.231282	0.298239	74.096051
9858.000137	1.008546	0.046776	1.009630	64.203726	9.616444	0.000030	-73.932729	-433.932729	-73.932729	0.004182	0.007106	2.830000	0.225194	0.294288	74.312256
10000.000000	1.009432	0.042156	1.010312	63.965761	9.745803	0.000029	-74.143319	-434.143319	-74.143319	0.004059	0.006912	2.830000	0.219255	0.290381	74.525776
10144.045304	1.008544	0.037576	1.009244	63.720520	9.877147	0.000028	-74.350792	-434.350792	-74.350792	0.003944	0.006711	2.830000	0.213462	0.286520	74.736635
10290.165513	1.006053	0.033793	1.006620	63.468726	10.010504	0.000027	-74.555290	-434.555290	-74.555290	0.003832	0.006506	2.830000	0.207812	0.282703	74.944856
10438.390514	1.002447	0.031431	1.002939	63.212524	10.145901	0.000025	-74.756826	-434.756826	-74.756826	0.003723	0.006300	2.830000	0.202302	0.278930	75.150461
10588.750628	0.998453	0.030845	0.998929	62.955201	10.283366	0.000024	-74.955579	-434.955579	-74.955579	0.003624	0.006098	2.830000	0.196929	0.275202	75.353475
10741.276608	0.994896	0.032037	0.995412	62.700549	10.422928	0.000023	-75.152296	-435.152296	-75.152296	0.003547	0.005905	2.830000	0.191690	0.271517	75.553921
10895.999653	0.992533	0.034631	0.993137	62.451910	10.564615	0.000022	-75.348395	-435.348395	-75.348395	0.003499	0.005725	2.830000	0.186582	0.267875	75.751823
11052.951411	0.991877	0.037937	0.992602	62.211196	10.708457	0.000022	-75.545284	-435.545284	-75.545284	0.003471	0.005560	2.830000	0.181603	0.264277	75.947203
11212.163986	0.993073	0.041089	0.993923	61.978416	10.854483	0.000021	-75.743302	-435.743302	-75.743302	0.003436	0.005409	2.830000	0.176749	0.260722	76.140088
11373.669943	0.995842	0.043232	0.996780	61.751833	11.002724	0.000020	-75.941597	-435.941597	-75.941597	0.003382	0.005271	2.830000	0.172018	0.257209	76.330500
11537.502317	0.999522	0.043734	1.000478	61.528396	11.153209	0.000019	-76.139067	-436.139067	-76.139067	0.003313	0.005142	2.830000	0.167407	0.253739	76.518466
11703.694619	1.003211	0.042347	1.004105	61.304276	11.305969	0.000018	-76.335175	-436.335175	-76.335175	0.003243	0.005015	2.830000	0.162914	0.250310	76.704010
11872.280844	1.005981	0.039293	1.006748	61.075587	11.461037	0.000017	-76.530075	-436.530075	-76.530075	0.003181	0.004887	2.830000	0.158535	0.246924	76.887158
12043.295474	1.007117	0.035236	1.007733	60.839235	11.618444	0.000017	-76.724287	-436.724287	-76.724287	0.003129	0.004755	2.830000	0.154268	0.243578	77.067935
12216.773490	1.006320	0.031124	1.006801	60.593659	11.778222	0.000016	-76.918109	-436.918109	-76.918109	0.003077	0.004618	2.830000	0.150111	0.240274	77.246366
12392.750375	1.003812	0.027947	1.004201	60.339336	11.940405	0.000015	-77.110853	-437.110853	-77.110853	0.003003	0.004476	2.830000	0.146060	0.237010	77.422476
12571.262124	1.000302	0.026462	1.000652	60.079011	12.105027	0.000015	-77.300502	-437.300502	-77.300502	0.002893	0.004335	2.830000	0.142115	0.233787	77.596288
12752.345251	0.996808	0.026955	0.997173	59.817351	12.272120	0.000014	-77.484715	-437.484715	-77.484715	0.002757	0.004198	2.830000	0.138271	0.230604	77.767826
12936.036796	0.994371	0.029135	0.994798	59.559576	12.441719	0.000014	-77.662394	-437.662394	-77.662394	0.002619	0.004070	2.830000	0.134527	0.227461	77.937115
13122.374331	0.993733	0.032189	0.994254	59.309558	12.613860	0.000013	-77.833854	-437.833854	-77.833854	0.002496	0.003952	2.830000	0.130880	0.224356	78.104179
13311.395971	0.995091	0.035010	0.995707	59.068467	12.788576	0.000012	-77.999859	-437.999859	-77.999859	0.002385	0.003846	2.830000	0.127328	0.221291	78.269042
13503.140379	0.998001	0.036539	0.998670	58.834476	12.965905	0.000012	-78.160976	-438.160976	-78.160976	0.002284	0.003748	2.830000	0.123869	0.218265	78.431728
13697.646775	1.001490	0.036123	1.002142	58.603469	13.145883	0.000011	-78.317595	-438.317595	-78.317595	0.002191	0.003655	2.830000	0.120500	0.215277	78.592263
13894.954944	1.004365	0.033758	1.004932	58.370481	13.328545	0.000011	-78.470245	-438.470245	-78.470245	0.002110	0.003563	2.830000	0.117220	0.212326	78.750670
14095.105244	1.005614	0.030130	1.006066	58.131403	13.513931	0.000010	-78.619814	-438.619814	-78.619814	0.002045	0.003467	2.830000	0.114025	0.209414	78.906975
14298.138616	1.004792	0.026400	1.005139	57.884472	13.702078	0.000010	-78.767493	-438.767493	-78.767493	0.001999	0.003366	2.830000	0.110915	0.206538	79.061202
14504.096588	1.002209	0.023797	1.002492	57.631030	13.893024	0.000010	-78.914657	-438.914657	-78.914657	0.001974	0.003263	2.830000	0.107887	0.203699	79.213375
14713.021288	0.998858	0.023157	0.999126	57.375146	14.086810	0.000009	-79.062786	-439.062786	-79.062786	0.001968	0.003160	2.830000	0.104939	0.200897	79.363516
14924.955451	0.996058	0.024562	0.996360	57.122030	14.283475	0.000009	-79.213027	-439.213027	-79.213027	0.001970	0.003063	2.830000	0.102069	0.198131	79.511649
15139.942425	0.994937	0.027278	0.995311	56.875927	14.483058	0.000008	-79.365363	-439.365363	-79.365363	0.001963	0.002973	2.830000	0.099275	0.195401	79.657798
15358.026185	0.995957	0.030007	0.996409	56.638371	14.685602	0.000008	-79.518614	-439.518614	-79.518614	0.001938	0.002892	2.830000	0.096556	0.192706	79.801984
15579.251340	0.998675	0.031418	0.999169	56.407313	14.891147	0.000008	-79.671625	-439.671625	-79.671625	0.001904	0.002818	2.830000	0.093909	0.190046	79.944233
15803.663140	1.001892	0.030726	1.002363	56.177536	15.099735	0.000007	-79.824128	-439.824128	-79.824128	0.001872	0.002747	2.830000	0.091332	0.187421	80.084567
16031.307485	1.004157	0.028080	1.004549	55.942540	15.311410	0.000007	-79.976287	-439.976287	-79.976287	0.001840	0.002676	2.830000	0.088824	0.184829	80.223009
16262.230941	1.004422	0.024539	1.004722	55.697348	15.526214	0.000007	-80.127221	-440.127221	-80.127221	0.001785	0.002601	2.830000	0.086383	0.182272	80.359583
16496.480741	1.002570	0.021617	1.002803	55.441287	15.744192	0.000007	-80.274140	-440.274140	-80.274140	0.001694	0.002523	2.830000	0.084008	0.179749	80.494311
16734.104799	0.999514	0.020565	0.999725	55.179008	15.965389	0.000006	-80.414467	-440.414467	-80.414467	0.001588	0.002445	2.830000	0.081696	0.177258	80.627215
16975.151720	0.996797	0.021723	0.997034	54.918157	16.189849	0.000006	-80.548183	-440.548183	-80.548183	0.001497	0.002369	2.830000	0.079446	0.174801	80.758318
17219.670809	0.995823	0.024301	0.996119	54.665328	16.417620	0.000006	-80.676479	-440.676479	-80.676479	0.001420	0.002300	2.830000	0.077257	0.172376	80.887640
17467.712080	0.997102	0.026738	0.997460	54.422927	16.648746	0.000006	-80.799976	-440.799976	-80.799976	0.001347	0.002238	2.830000	0.075127	0.169983	81.015205
17719.326270	0.999926	0.027516	1.000304	54.188176	16.883277	0.000005	-80.919017	-440.919017	-80.919017	0.001284	0.002181	2.830000	0.073054	0.167621	81.141034
17974.564843	1.002704	0.026015	1.003041	53.954636	17.121259	0.000005	-81.034953	-441.034953	-81.034953	0.001245	0.002126	2.830000	0.071037	0.165292	81.265148
18233.480009	1.003834	0.022918	1.004096	53.715579	17.362742	0.000005	-81.150517	-441.150517	-81.150517	0.001240	0.002068	2.830000	0.069075	0.162993	81.387569
18496.124725	1.002655	0.019872	1.002852	53.467722	17.607774	0.000005	-81.268360	-441.268360	-81.268360	0.001255	0.002007	2.830000	0.067166	0.160724	81.508319
18762.552716	0.999895	0.018533	1.000067	53.213391	17.856407	0.000004	-81.389651	-441.389651	-81.389651	0.001273	0.001945	2.830000	0.065308	0.158487	81.627419
19032.818477	0.997287	0.019530	0.997479	52.959279	18.108691	0.000004	-81.514013	-441.514013	-81.514013	0.001281	0.001886	2.830000	0.063501	0.156279	81.744889
19306.977289	0.996507	0.022007	0.996750	52.712134	18.364678	0.000004	-81.640087	-441.640087	-81.640087	0.001272	0.001831	2.830000	0.061743	0.154100	81.860749
19585.085230	0.998058	0.024118	0.998350	52.473921	18.624420	0.000004	-81.766513	-441.766513	-81.766513	0.001252	0.001782	2.830000	0.060033	0.151951	81.975021
19867.199185	1.000878	0.024226	1.001171	52.239753	18.887970	0.000004	-81.892363	-441.892363	-81.892363	0.001223	0.001737	2.830000	0.058369	0.149831	82.087723
20000.000000	1.002071	0.023449	1.002346	52.129540	19.012055	0.000004	-81.950371	-441.950371	-81.950371	0.001202	0.001716	2.830000	0.057610	0.148853	82.139693
