Freq (hertz)	Ra (norm)	Xa (norm)	Za (norm)	SPL (dB)	Ze (ohms)	Xd (mm) 	WPhase (deg)	UPhase (deg)	CPhase (deg)	Delay (msec)	Efficiency (%)	Ein (volts)	Pin (watts)	Iin (amps)	ZePhase (deg)

10.000000	0.000642	0.030416	0.030423	76.419641	10.225749	2.044661	119.759871	119.759871	119.759871	9.725238	0.060163	2.830000	0.441902	0.276752	55.651920
10.144045	0.000661	0.030854	0.030861	76.587265	10.382876	2.025730	119.259190	119.259190	119.259190	9.586090	0.064157	2.830000	0.430699	0.272564	56.057130
10.290166	0.000680	0.031298	0.031306	76.754024	10.545660	2.006774	118.758587	118.758587	118.758587	9.448034	0.068429	2.830000	0.419619	0.268357	56.459228
10.438391	0.000700	0.031749	0.031757	76.919923	10.714376	1.987799	118.258111	118.258111	118.258111	9.311112	0.072999	2.830000	0.408665	0.264131	56.858014
10.588751	0.000720	0.032206	0.032214	77.084967	10.889319	1.968810	117.757804	117.757804	117.757804	9.175362	0.077890	2.830000	0.397842	0.259888	57.253283
10.741277	0.000741	0.032669	0.032678	77.249164	11.070800	1.949812	117.257711	117.257711	117.257711	9.040825	0.083124	2.830000	0.387153	0.255627	57.644817
10.896000	0.000763	0.033140	0.033148	77.412517	11.259155	1.930810	116.757874	116.757874	116.757874	8.907536	0.088728	2.830000	0.376603	0.251351	58.032391
11.052951	0.000785	0.033617	0.033626	77.575034	11.454744	1.911810	116.258331	116.258331	116.258331	8.775530	0.094729	2.830000	0.366195	0.247059	58.415766
11.212164	0.000807	0.034100	0.034110	77.736721	11.657951	1.892816	115.759121	115.759121	115.759121	8.644841	0.101157	2.830000	0.355934	0.242753	58.794690
11.373670	0.000831	0.034591	0.034601	77.897585	11.869191	1.873833	115.260279	115.260279	115.260279	8.515500	0.108044	2.830000	0.345823	0.238432	59.168899
11.537502	0.000855	0.035089	0.035099	78.057631	12.088907	1.854866	114.761839	114.761839	114.761839	8.387536	0.115423	2.830000	0.335864	0.234099	59.538111
11.703695	0.000880	0.035594	0.035605	78.216867	12.317579	1.835920	114.263833	114.263833	114.263833	8.260978	0.123333	2.830000	0.326063	0.229753	59.902028
11.872281	0.000905	0.036106	0.036118	78.375300	12.555724	1.817000	113.766290	113.766290	113.766290	8.135851	0.131813	2.830000	0.316421	0.225395	60.260333
12.043295	0.000932	0.036626	0.036638	78.532936	12.803898	1.798110	113.269239	113.269239	113.269239	8.012180	0.140907	2.830000	0.306942	0.221026	60.612686
12.216773	0.000959	0.037153	0.037165	78.689783	13.062705	1.779255	112.772706	112.772706	112.772706	7.889986	0.150660	2.830000	0.297629	0.216647	60.958725
12.392750	0.000986	0.037687	0.037700	78.845848	13.332797	1.760439	112.276713	112.276713	112.276713	7.769291	0.161123	2.830000	0.288484	0.212259	61.298061
12.571262	0.001015	0.038230	0.038243	79.001137	13.614884	1.741668	111.781283	111.781283	111.781283	7.650114	0.172349	2.830000	0.279511	0.207861	61.630275
12.752345	0.001044	0.038780	0.038794	79.155658	13.909734	1.722944	111.286436	111.286436	111.286436	7.532470	0.184397	2.830000	0.270711	0.203455	61.954915
12.936037	0.001075	0.039338	0.039352	79.309419	14.218185	1.704272	110.792188	110.792188	110.792188	7.416376	0.197329	2.830000	0.262087	0.199041	62.271495
13.122374	0.001106	0.039904	0.039919	79.462427	14.541150	1.685657	110.298556	110.298556	110.298556	7.301845	0.211211	2.830000	0.253642	0.194620	62.579483
13.311396	0.001138	0.040478	0.040494	79.614689	14.879627	1.667103	109.805553	109.805553	109.805553	7.188890	0.226115	2.830000	0.245377	0.190193	62.878305
13.503140	0.001171	0.041060	0.041077	79.766212	15.234706	1.648612	109.313190	109.313190	109.313190	7.077520	0.242119	2.830000	0.237294	0.185760	63.167332
13.697647	0.001205	0.041651	0.041668	79.917005	15.607586	1.630190	108.821478	108.821478	108.821478	6.967743	0.259304	2.830000	0.229396	0.181322	63.445878
13.894955	0.001240	0.042250	0.042268	80.067074	15.999579	1.611840	108.330423	108.330423	108.330423	6.859568	0.277758	2.830000	0.221685	0.176880	63.713191
14.095105	0.001276	0.042858	0.042877	80.216426	16.412135	1.593565	107.840030	107.840030	107.840030	6.752998	0.297575	2.830000	0.214161	0.172433	63.968442
14.298139	0.001313	0.043474	0.043494	80.365070	16.846850	1.575369	107.350304	107.350304	107.350304	6.648039	0.318857	2.830000	0.206826	0.167984	64.210720
14.504097	0.001351	0.044100	0.044120	80.513012	17.305491	1.557255	106.861245	106.861245	106.861245	6.544693	0.341707	2.830000	0.199683	0.163532	64.439013
14.713021	0.001390	0.044734	0.044756	80.660259	17.790016	1.539227	106.372854	106.372854	106.372854	6.442959	0.366241	2.830000	0.192732	0.159078	64.652203
14.924955	0.001430	0.045377	0.045400	80.806819	18.302604	1.521287	105.885127	105.885127	105.885127	6.342839	0.392575	2.830000	0.185975	0.154623	64.849042
15.139942	0.001472	0.046030	0.046054	80.952699	18.845679	1.503439	105.398061	105.398061	105.398061	6.244330	0.420836	2.830000	0.179412	0.150167	65.028139
15.358026	0.001515	0.046692	0.046717	81.097906	19.421952	1.485686	104.911650	104.911650	104.911650	6.147429	0.451154	2.830000	0.173045	0.145711	65.187935
15.579251	0.001559	0.047363	0.047389	81.242447	20.034461	1.468029	104.425884	104.425884	104.425884	6.052132	0.483666	2.830000	0.166876	0.141257	65.326679
15.803663	0.001604	0.048045	0.048071	81.386328	20.686619	1.450473	103.940756	103.940756	103.940756	5.958433	0.518513	2.830000	0.160904	0.136803	65.442393
16.031307	0.001650	0.048735	0.048763	81.529557	21.382275	1.433020	103.456252	103.456252	103.456252	5.866325	0.555841	2.830000	0.155131	0.132353	65.532841
16.262231	0.001698	0.049436	0.049465	81.672141	22.125781	1.415671	102.972360	102.972360	102.972360	5.775800	0.595798	2.830000	0.149558	0.127905	65.595481
16.496481	0.001747	0.050147	0.050177	81.814084	22.922077	1.398430	102.489066	102.489066	102.489066	5.686849	0.638532	2.830000	0.144185	0.123462	65.627413
16.734105	0.001798	0.050868	0.050900	81.955395	23.776785	1.381299	102.006351	102.006351	102.006351	5.599463	0.684191	2.830000	0.139013	0.119024	65.625315
16.975152	0.001850	0.051599	0.051632	82.096079	24.696334	1.364279	101.524198	101.524198	101.524198	5.513629	0.732922	2.830000	0.134043	0.114592	65.585361
17.219671	0.001904	0.052341	0.052376	82.236142	25.688094	1.347374	101.042587	101.042587	101.042587	5.429337	0.784861	2.830000	0.129275	0.110168	65.503132
17.467712	0.001959	0.053093	0.053129	82.375591	26.760553	1.330583	100.561497	100.561497	100.561497	5.346573	0.840138	2.830000	0.124710	0.105753	65.373491
17.719326	0.002016	0.053856	0.053894	82.514431	27.923523	1.313911	100.080905	100.080905	100.080905	5.265323	0.898868	2.830000	0.120349	0.101348	65.190442
17.974565	0.002074	0.054631	0.054670	82.652668	29.188388	1.297357	99.600787	99.600787	99.600787	5.185573	0.961145	2.830000	0.116191	0.096956	64.946944
18.233480	0.002134	0.055416	0.055457	82.790307	30.568408	1.280924	99.121116	99.121116	99.121116	5.107308	1.027040	2.830000	0.112237	0.092579	64.634683
18.496125	0.002196	0.056212	0.056255	82.927353	32.079093	1.264614	98.641866	98.641866	98.641866	5.030512	1.096595	2.830000	0.108488	0.088219	64.243787
18.762553	0.002260	0.057020	0.057065	83.063812	33.738637	1.248427	98.163008	98.163008	98.163008	4.955168	1.169812	2.830000	0.104944	0.083880	63.762455
19.032818	0.002326	0.057839	0.057886	83.199689	35.568458	1.232365	97.684513	97.684513	97.684513	4.881258	1.246649	2.830000	0.101606	0.079565	63.176491
19.306977	0.002393	0.058670	0.058719	83.334988	37.593819	1.216429	97.206349	97.206349	97.206349	4.808766	1.327015	2.830000	0.098473	0.075278	62.468708
19.585085	0.002462	0.059513	0.059564	83.469713	39.844553	1.200621	96.728485	96.728485	96.728485	4.737672	1.410757	2.830000	0.095546	0.071026	61.618147
19.867199	0.002534	0.060368	0.060421	83.603870	42.355854	1.184940	96.250887	96.250887	96.250887	4.667958	1.497660	2.830000	0.092826	0.066815	60.599086
20.153377	0.002607	0.061235	0.061291	83.737463	45.169062	1.169389	95.773522	95.773522	95.773522	4.599605	1.587436	2.830000	0.090312	0.062654	59.379748
20.443677	0.002683	0.062115	0.062173	83.870494	48.332268	1.153968	95.296353	95.296353	95.296353	4.532592	1.679722	2.830000	0.088005	0.058553	57.920650
20.738158	0.002761	0.063007	0.063067	84.002968	51.900382	1.138678	94.819344	94.819344	94.819344	4.466900	1.774076	2.830000	0.085905	0.054528	56.172522
21.036882	0.002841	0.063912	0.063975	84.134889	55.933895	1.123519	94.342458	94.342458	94.342458	4.402508	1.869982	2.830000	0.084013	0.050595	54.073759
21.339908	0.002923	0.064830	0.064895	84.266260	60.494929	1.108492	93.865657	93.865657	93.865657	4.339395	1.966845	2.830000	0.082329	0.046781	51.547516
21.647300	0.003008	0.065760	0.065829	84.397083	65.637950	1.093597	93.388902	93.388902	93.388902	4.277541	2.064003	2.830000	0.080852	0.043115	48.498856
21.959119	0.003095	0.066705	0.066776	84.527362	71.390675	1.078835	92.912153	92.912153	92.912153	4.216924	2.160738	2.830000	0.079584	0.039641	44.813112
22.275430	0.003184	0.067662	0.067737	84.657099	77.718531	1.064207	92.435370	92.435370	92.435370	4.157523	2.256284	2.830000	0.078525	0.036413	40.358055
22.596297	0.003277	0.068633	0.068712	84.786296	84.465673	1.049713	91.958510	91.958510	91.958510	4.099316	2.349848	2.830000	0.077676	0.033505	34.994900
22.921786	0.003372	0.069618	0.069700	84.914956	91.273646	1.035352	91.481533	91.481533	91.481533	4.042282	2.440627	2.830000	0.077035	0.031006	28.606078
23.251963	0.003469	0.070618	0.070703	85.043080	97.507947	1.021125	91.004395	91.004395	91.004395	3.986398	2.527834	2.830000	0.076604	0.029023	21.147483
23.586897	0.003570	0.071631	0.071720	85.170670	102.276908	1.007032	90.527055	90.527055	90.527055	3.931642	2.610713	2.830000	0.076384	0.027670	12.720863
23.926655	0.003673	0.072659	0.072752	85.297728	104.653514	0.993073	90.049467	90.049467	90.049467	3.877993	2.688567	2.830000	0.076374	0.027042	3.631169
24.271307	0.003780	0.073701	0.073798	85.424255	104.083272	0.979249	89.571589	89.571589	89.571589	3.825429	2.760776	2.830000	0.076575	0.027190	-5.634207
24.620924	0.003889	0.074758	0.074860	85.550251	100.699330	0.965558	89.093376	89.093376	89.093376	3.773926	2.826811	2.830000	0.076988	0.028103	-14.533227
24.975577	0.004002	0.075831	0.075936	85.675717	95.243029	0.952001	88.614783	88.614783	88.614783	3.723464	2.886254	2.830000	0.077612	0.029713	-22.634447
25.335338	0.004118	0.076918	0.077028	85.800654	88.670756	0.938578	88.135765	88.135765	88.135765	3.674020	2.938802	2.830000	0.078449	0.031916	-29.708907
25.700282	0.004238	0.078021	0.078136	85.925062	81.794663	0.925289	87.656277	87.656277	87.656277	3.625572	2.984269	2.830000	0.079499	0.034599	-35.715787
26.070482	0.004360	0.079140	0.079260	86.048941	75.143868	0.912132	87.176273	87.176273	87.176273	3.578099	3.022592	2.830000	0.080762	0.037661	-40.733198
26.446016	0.004487	0.080274	0.080400	86.172289	68.992642	0.899108	86.695708	86.695708	86.695708	3.531578	3.053818	2.830000	0.082239	0.041019	-44.890946
26.826958	0.004617	0.081425	0.081556	86.295108	63.443587	0.886217	86.214537	86.214537	86.214537	3.485987	3.078100	2.830000	0.083931	0.044607	-48.327584
27.213388	0.004750	0.082592	0.082729	86.417396	58.502423	0.873457	85.732713	85.732713	85.732713	3.441305	3.095682	2.830000	0.085838	0.048374	-51.169696
27.605384	0.004888	0.083776	0.083918	86.539151	54.127955	0.860829	85.250191	85.250191	85.250191	3.397511	3.106885	2.830000	0.087960	0.052284	-53.524832
28.003026	0.005030	0.084976	0.085125	86.660373	50.260800	0.848332	84.766925	84.766925	84.766925	3.354584	3.112091	2.830000	0.090298	0.056306	-55.481141
28.406397	0.005175	0.086193	0.086348	86.781060	46.838255	0.835966	84.282870	84.282870	84.282870	3.312501	3.111730	2.830000	0.092854	0.060421	-57.109645
28.815578	0.005325	0.087428	0.087590	86.901210	43.801230	0.823730	83.797980	83.797980	83.797980	3.271242	3.106263	2.830000	0.095626	0.064610	-58.467192
29.230652	0.005479	0.088680	0.088849	87.020822	41.096964	0.811623	83.312210	83.312210	83.312210	3.230786	3.096167	2.830000	0.098617	0.068862	-59.599260
29.651706	0.005638	0.089950	0.090126	87.139892	38.679650	0.799644	82.825515	82.825515	82.825515	3.191113	3.081925	2.830000	0.101827	0.073165	-60.542339
30.078825	0.005801	0.091237	0.091422	87.258418	36.510099	0.787794	82.337850	82.337850	82.337850	3.152203	3.064016	2.830000	0.105256	0.077513	-61.325855
30.512097	0.005969	0.092543	0.092735	87.376398	34.555029	0.776071	81.849172	81.849172	81.849172	3.114034	3.042903	2.830000	0.108905	0.081898	-61.973674
30.951609	0.006142	0.093868	0.094068	87.493828	32.786254	0.764475	81.359436	81.359436	81.359436	3.076588	3.019030	2.830000	0.112774	0.086317	-62.505288
31.397452	0.006320	0.095211	0.095420	87.610705	31.179903	0.753004	80.868599	80.868599	80.868599	3.039844	2.992815	2.830000	0.116865	0.090764	-62.936717
31.849718	0.006503	0.096573	0.096791	87.727025	29.715735	0.741659	80.376619	80.376619	80.376619	3.003783	2.964646	2.830000	0.121178	0.095236	-63.281223
32.308498	0.006691	0.097954	0.098182	87.842785	28.376534	0.730439	79.883452	79.883452	79.883452	2.968386	2.934882	2.830000	0.125714	0.099730	-63.549849
32.773887	0.006885	0.099354	0.099593	87.957981	27.147616	0.719342	79.389057	79.389057	79.389057	2.933634	2.903849	2.830000	0.130472	0.104245	-63.751857
33.245979	0.007084	0.100775	0.101023	88.072608	26.016406	0.708368	78.893393	78.893393	78.893393	2.899508	2.871842	2.830000	0.135455	0.108778	-63.895056
33.724872	0.007289	0.102215	0.102475	88.186663	24.972095	0.697516	78.396420	78.396420	78.396420	2.865990	2.839124	2.830000	0.140662	0.113326	-63.986071
34.210663	0.007500	0.103676	0.103947	88.300139	24.005358	0.686785	77.898098	77.898098	77.898098	2.833062	2.805930	2.830000	0.146094	0.117890	-64.030553
34.703452	0.007717	0.105157	0.105440	88.413033	23.108116	0.676175	77.398389	77.398389	77.398389	2.800706	2.772465	2.830000	0.151751	0.122468	-64.033346
35.203338	0.007941	0.106659	0.106954	88.525339	22.273343	0.665684	76.897253	76.897253	76.897253	2.768905	2.738909	2.830000	0.157634	0.127058	-63.998626
35.710426	0.008171	0.108182	0.108490	88.637052	21.494907	0.655312	76.394655	76.394655	76.394655	2.737642	2.705417	2.830000	0.163744	0.131659	-63.930006
36.224818	0.008407	0.109726	0.110048	88.748167	20.767434	0.645058	75.890558	75.890558	75.890558	2.706899	2.672124	2.830000	0.170080	0.136271	-63.830627
36.746619	0.008650	0.111292	0.111628	88.858676	20.086200	0.634921	75.384927	75.384927	75.384927	2.676660	2.639143	2.830000	0.176644	0.140893	-63.703232
37.275937	0.008900	0.112880	0.113231	88.968576	19.447038	0.624900	74.877727	74.877727	74.877727	2.646909	2.606571	2.830000	0.183435	0.145523	-63.550225
37.812880	0.009158	0.114490	0.114856	89.077858	18.846258	0.614994	74.368927	74.368927	74.368927	2.617629	2.574486	2.830000	0.190454	0.150162	-63.373723
38.357556	0.009423	0.116123	0.116505	89.186517	18.280585	0.605203	73.858493	73.858493	73.858493	2.588806	2.542955	2.830000	0.197700	0.154809	-63.175592
38.910079	0.009695	0.117779	0.118177	89.294547	17.747101	0.595525	73.346396	73.346396	73.346396	2.560424	2.512031	2.830000	0.205175	0.159463	-62.957486
39.470560	0.009976	0.119457	0.119873	89.401940	17.243199	0.585960	72.832606	72.832606	72.832606	2.532468	2.481756	2.830000	0.212877	0.164123	-62.720878
40.039115	0.010264	0.121159	0.121593	89.508690	16.766546	0.576506	72.317095	72.317095	72.317095	2.504923	2.452164	2.830000	0.220808	0.168788	-62.467077
40.615860	0.010561	0.122885	0.123338	89.614790	16.315043	0.567163	71.799835	71.799835	71.799835	2.477776	2.423278	2.830000	0.228966	0.173460	-62.197256
41.200912	0.010866	0.124634	0.125107	89.720231	15.886805	0.557930	71.280801	71.280801	71.280801	2.451012	2.395115	2.830000	0.237351	0.178135	-61.912467
41.794392	0.011180	0.126408	0.126902	89.825008	15.480125	0.548807	70.759969	70.759969	70.759969	2.424617	2.367687	2.830000	0.245964	0.182815	-61.613655
42.396421	0.011504	0.128207	0.128722	89.929111	15.093463	0.539791	70.237317	70.237317	70.237317	2.398578	2.340999	2.830000	0.254803	0.187498	-61.301673
43.007121	0.011836	0.130030	0.130568	90.032534	14.725419	0.530883	69.712822	69.712822	69.712822	2.372883	2.315053	2.830000	0.263868	0.192185	-60.977291
43.626619	0.012178	0.131879	0.132440	90.135268	14.374724	0.522081	69.186466	69.186466	69.186466	2.347519	2.289846	2.830000	0.273159	0.196873	-60.641207
44.255040	0.012530	0.133753	0.134339	90.237306	14.040219	0.513385	68.658229	68.658229	68.658229	2.322473	2.265372	2.830000	0.282674	0.201564	-60.294056
44.892513	0.012892	0.135654	0.136265	90.338639	13.720848	0.504794	68.128096	68.128096	68.128096	2.297734	2.241623	2.830000	0.292412	0.206255	-59.936416
45.539168	0.013264	0.137580	0.138218	90.439259	13.415646	0.496306	67.596051	67.596051	67.596051	2.273290	2.218589	2.830000	0.302373	0.210948	-59.568813
46.195138	0.013648	0.139533	0.140199	90.539158	13.123729	0.487922	67.062080	67.062080	67.062080	2.249130	2.196257	2.830000	0.312555	0.215640	-59.191731
46.860558	0.014042	0.141513	0.142208	90.638326	12.844284	0.479640	66.526173	66.526173	66.526173	2.225243	2.174612	2.830000	0.322957	0.220331	-58.805612
47.535562	0.014447	0.143520	0.144245	90.736756	12.576566	0.471459	65.988318	65.988318	65.988318	2.201619	2.153642	2.830000	0.333577	0.225022	-58.410862
48.220290	0.014864	0.145555	0.146312	90.834439	12.319888	0.463379	65.448508	65.448508	65.448508	2.178247	2.133329	2.830000	0.344414	0.229710	-58.007856
48.914880	0.015293	0.147617	0.148407	90.931366	12.073616	0.455399	64.906736	64.906736	64.906736	2.155118	2.113657	2.830000	0.355465	0.234395	-57.596941
49.619476	0.015735	0.149708	0.150532	91.027529	11.837165	0.447517	64.362997	64.362997	64.362997	2.132222	2.094610	2.830000	0.366728	0.239078	-57.178437
50.334221	0.016189	0.151827	0.152688	91.122917	11.609995	0.439734	63.817287	63.817287	63.817287	2.109550	2.076170	2.830000	0.378201	0.243755	-56.752640
51.059262	0.016656	0.153975	0.154873	91.217523	11.391603	0.432048	63.269606	63.269606	63.269606	2.087093	2.058320	2.830000	0.389883	0.248429	-56.319827
51.794747	0.017137	0.156153	0.157090	91.311338	11.181524	0.424459	62.719955	62.719955	62.719955	2.064843	2.041043	2.830000	0.401769	0.253096	-55.880256
52.540826	0.017631	0.158360	0.159338	91.404352	10.979328	0.416966	62.168335	62.168335	62.168335	2.042793	2.024320	2.830000	0.413857	0.257757	-55.434168
53.297652	0.018139	0.160596	0.161618	91.496556	10.784611	0.409567	61.614751	61.614751	61.614751	2.020933	2.008137	2.830000	0.426144	0.262411	-54.981788
54.065379	0.018662	0.162864	0.163929	91.587942	10.597001	0.402263	61.059208	61.059208	61.059208	1.999258	1.992474	2.830000	0.438628	0.267057	-54.523328
54.844166	0.019200	0.165162	0.166274	91.678500	10.416148	0.395053	60.501716	60.501716	60.501716	1.977759	1.977316	2.830000	0.451303	0.271694	-54.058987
55.634170	0.019754	0.167491	0.168651	91.768221	10.241726	0.387936	59.942282	59.942282	59.942282	1.956431	1.962646	2.830000	0.464167	0.276321	-53.588953
56.435554	0.020323	0.169851	0.171062	91.857097	10.073432	0.380911	59.380920	59.380920	59.380920	1.935266	1.948447	2.830000	0.477216	0.280937	-53.113403
57.248482	0.020909	0.172243	0.173507	91.945118	9.910981	0.373977	58.817642	58.817642	58.817642	1.914260	1.934706	2.830000	0.490446	0.285542	-52.632508
58.073119	0.021511	0.174667	0.175986	92.032275	9.754106	0.367134	58.252463	58.252463	58.252463	1.893406	1.921405	2.830000	0.503852	0.290134	-52.146426
58.909635	0.022131	0.177123	0.178501	92.118560	9.602557	0.360381	57.685401	57.685401	57.685401	1.872699	1.908530	2.830000	0.517430	0.294713	-51.655311
59.758201	0.022768	0.179613	0.181050	92.203964	9.456100	0.353717	57.116475	57.116475	57.116475	1.852134	1.896066	2.830000	0.531174	0.299278	-51.159308
60.618990	0.023423	0.182135	0.183635	92.288477	9.314514	0.347143	56.545705	56.545705	56.545705	1.831706	1.884000	2.830000	0.545081	0.303827	-50.658558
61.492178	0.024097	0.184691	0.186256	92.372092	9.177592	0.340656	55.973113	55.973113	55.973113	1.811412	1.872318	2.830000	0.559144	0.308360	-50.153194
62.377944	0.024791	0.187281	0.188915	92.454799	9.045138	0.334257	55.398724	55.398724	55.398724	1.791246	1.861005	2.830000	0.573359	0.312875	-49.643345
63.276469	0.025504	0.189905	0.191610	92.536590	8.916970	0.327944	54.822564	54.822564	54.822564	1.771206	1.850050	2.830000	0.587719	0.317372	-49.129136
64.187937	0.026238	0.192564	0.194343	92.617458	8.792913	0.321718	54.244660	54.244660	54.244660	1.751288	1.839440	2.830000	0.602219	0.321850	-48.610686
65.112534	0.026992	0.195257	0.197114	92.697393	8.672805	0.315577	53.665042	53.665042	53.665042	1.731489	1.829163	2.830000	0.616852	0.326307	-48.088113
66.050449	0.027768	0.197986	0.199924	92.776387	8.556489	0.309520	53.083740	53.083740	53.083740	1.711806	1.819206	2.830000	0.631613	0.330743	-47.561528
67.001875	0.028566	0.200751	0.202773	92.854433	8.443821	0.303548	52.500786	52.500786	52.500786	1.692237	1.809560	2.830000	0.646494	0.335156	-47.031042
67.967006	0.029387	0.203551	0.205662	92.931523	8.334662	0.297660	51.916215	51.916215	51.916215	1.672779	1.800212	2.830000	0.661489	0.339546	-46.496761
68.946038	0.030231	0.206388	0.208591	93.007648	8.228882	0.291855	51.330062	51.330062	51.330062	1.653431	1.791153	2.830000	0.676592	0.343911	-45.958789
69.939174	0.031099	0.209262	0.211560	93.082802	8.126355	0.286132	50.742364	50.742364	50.742364	1.634191	1.782371	2.830000	0.691793	0.348250	-45.417228
70.946615	0.031991	0.212173	0.214571	93.156978	8.026964	0.280491	50.153159	50.153159	50.153159	1.615057	1.773858	2.830000	0.707088	0.352562	-44.872177
71.968567	0.032909	0.215121	0.217624	93.230167	7.930598	0.274931	49.562487	49.562487	49.562487	1.596028	1.765603	2.830000	0.722467	0.356846	-44.323734
73.005241	0.033853	0.218107	0.220719	93.302364	7.837151	0.269452	48.970389	48.970389	48.970389	1.577104	1.757598	2.830000	0.737923	0.361101	-43.771994
74.056847	0.034824	0.221132	0.223857	93.373560	7.746521	0.264053	48.376906	48.376906	48.376906	1.558284	1.749834	2.830000	0.753449	0.365325	-43.217052
75.123601	0.035822	0.224194	0.227038	93.443751	7.658612	0.258733	47.782082	47.782082	47.782082	1.539567	1.742301	2.830000	0.769035	0.369519	-42.658998
76.205721	0.036849	0.227296	0.230263	93.512929	7.573334	0.253492	47.185961	47.185961	47.185961	1.520953	1.734992	2.830000	0.784675	0.373680	-42.097924
77.303429	0.037904	0.230436	0.233533	93.581089	7.490600	0.248330	46.588588	46.588588	46.588588	1.502443	1.727899	2.830000	0.800359	0.377807	-41.533919
78.416948	0.038990	0.233617	0.236848	93.648224	7.410326	0.243245	45.990010	45.990010	45.990010	1.484036	1.721014	2.830000	0.816079	0.381900	-40.967071
79.546508	0.040106	0.236836	0.240208	93.714328	7.332433	0.238237	45.390274	45.390274	45.390274	1.465733	1.714330	2.830000	0.831827	0.385956	-40.397466
80.692338	0.041253	0.240096	0.243615	93.779397	7.256846	0.233306	44.789427	44.789427	44.789427	1.447534	1.707838	2.830000	0.847593	0.389977	-39.825190
81.854673	0.042433	0.243397	0.247068	93.843425	7.183493	0.228451	44.187519	44.187519	44.187519	1.429440	1.701534	2.830000	0.863369	0.393959	-39.250327
83.033751	0.043646	0.246738	0.250568	93.906408	7.112305	0.223671	43.584598	43.584598	43.584598	1.411452	1.695408	2.830000	0.879146	0.397902	-38.672959
84.229813	0.044893	0.250120	0.254117	93.968339	7.043216	0.218966	42.980714	42.980714	42.980714	1.393571	1.689456	2.830000	0.894914	0.401805	-38.093168
85.443104	0.046176	0.253543	0.257714	94.029215	6.976164	0.214336	42.375918	42.375918	42.375918	1.375799	1.683671	2.830000	0.910665	0.405667	-37.511036
86.673872	0.047494	0.257008	0.261359	94.089032	6.911088	0.209779	41.770260	41.770260	41.770260	1.358137	1.678047	2.830000	0.926389	0.409487	-36.926641
87.922369	0.048849	0.260515	0.265055	94.147785	6.847930	0.205295	41.163792	41.163792	41.163792	1.340585	1.672577	2.830000	0.942078	0.413264	-36.340063
89.188849	0.050242	0.264063	0.268801	94.205471	6.786636	0.200884	40.556565	40.556565	40.556565	1.323146	1.667257	2.830000	0.957721	0.416996	-35.751378
90.473572	0.051675	0.267654	0.272597	94.262086	6.727152	0.196544	39.948629	39.948629	39.948629	1.305822	1.662081	2.830000	0.973309	0.420683	-35.160663
91.776802	0.053147	0.271288	0.276445	94.317627	6.669427	0.192276	39.340038	39.340038	39.340038	1.288613	1.657043	2.830000	0.988834	0.424324	-34.567993
93.098803	0.054661	0.274965	0.280345	94.372091	6.613413	0.188079	38.730841	38.730841	38.730841	1.271523	1.652138	2.830000	1.004285	0.427918	-33.973442
94.439848	0.056217	0.278684	0.284298	94.425474	6.559064	0.183952	38.121092	38.121092	38.121092	1.254552	1.647362	2.830000	1.019654	0.431464	-33.377082
95.800210	0.057816	0.282447	0.288303	94.477775	6.506334	0.179894	37.510841	37.510841	37.510841	1.237703	1.642709	2.830000	1.034931	0.434961	-32.778987
97.180167	0.059459	0.286253	0.292363	94.528990	6.455180	0.175905	36.900138	36.900138	36.900138	1.220978	1.638175	2.830000	1.050106	0.438408	-32.179226
98.580001	0.061149	0.290102	0.296477	94.579118	6.405561	0.171985	36.289036	36.289036	36.289036	1.204378	1.633755	2.830000	1.065171	0.441804	-31.577868
100.000000	0.062885	0.293995	0.300646	94.628156	6.357437	0.168132	35.677584	35.677584	35.677584	1.187907	1.629445	2.830000	1.080116	0.445148	-30.974981
101.440453	0.064670	0.297932	0.304870	94.676103	6.310769	0.164347	35.065833	35.065833	35.065833	1.171564	1.625240	2.830000	1.094932	0.448440	-30.370633
102.901655	0.066504	0.301913	0.309151	94.722958	6.265522	0.160628	34.453831	34.453831	34.453831	1.155354	1.621138	2.830000	1.109610	0.451678	-29.764888
104.383905	0.068388	0.305938	0.313489	94.768718	6.221660	0.156974	33.841629	33.841629	33.841629	1.139278	1.617132	2.830000	1.124141	0.454863	-29.157812
105.887506	0.070325	0.310007	0.317884	94.813382	6.179148	0.153386	33.229272	33.229272	33.229272	1.123337	1.613220	2.830000	1.138516	0.457992	-28.549466
107.412766	0.072315	0.314121	0.322337	94.856950	6.137954	0.149863	32.616810	32.616810	32.616810	1.107535	1.609398	2.830000	1.152726	0.461066	-27.939912
108.959997	0.074360	0.318278	0.326849	94.899421	6.098047	0.146403	32.004289	32.004289	32.004289	1.091872	1.605662	2.830000	1.166763	0.464083	-27.329210
110.529514	0.076461	0.322479	0.331420	94.940794	6.059396	0.143007	31.391755	31.391755	31.391755	1.076351	1.602008	2.830000	1.180617	0.467043	-26.717419
112.121640	0.078620	0.326725	0.336051	94.981068	6.021972	0.139673	30.779252	30.779252	30.779252	1.060974	1.598433	2.830000	1.194282	0.469946	-26.104596
113.736699	0.080839	0.331015	0.340743	95.020243	5.985746	0.136402	30.166825	30.166825	30.166825	1.045742	1.594934	2.830000	1.207747	0.472790	-25.490797
115.375023	0.083117	0.335348	0.345495	95.058319	5.950692	0.133191	29.554516	29.554516	29.554516	1.030658	1.591506	2.830000	1.221006	0.475575	-24.876075
117.036946	0.085458	0.339726	0.350310	95.095295	5.916784	0.130041	28.942367	28.942367	28.942367	1.015723	1.588148	2.830000	1.234050	0.478300	-24.260484
118.722808	0.087863	0.344147	0.355187	95.131172	5.883997	0.126951	28.330420	28.330420	28.330420	1.000938	1.584856	2.830000	1.246872	0.480966	-23.644074
120.432955	0.090334	0.348612	0.360126	95.165949	5.852305	0.123921	27.718712	27.718712	27.718712	0.986306	1.581626	2.830000	1.259463	0.483570	-23.026895
122.167735	0.092871	0.353121	0.365129	95.199627	5.821687	0.120949	27.107284	27.107284	27.107284	0.971827	1.578456	2.830000	1.271816	0.486113	-22.408996
123.927504	0.095477	0.357672	0.370196	95.232205	5.792119	0.118035	26.496172	26.496172	26.496172	0.957503	1.575343	2.830000	1.283925	0.488595	-21.790422
125.712621	0.098154	0.362266	0.375328	95.263684	5.763581	0.115178	25.885412	25.885412	25.885412	0.943335	1.572284	2.830000	1.295782	0.491014	-21.171218
127.523453	0.100903	0.366903	0.380525	95.294064	5.736050	0.112377	25.275039	25.275039	25.275039	0.929325	1.569276	2.830000	1.307379	0.493371	-20.551429
129.360368	0.103726	0.371582	0.385788	95.323346	5.709508	0.109632	24.665085	24.665085	24.665085	0.915474	1.566316	2.830000	1.318711	0.495664	-19.931095
131.223743	0.106625	0.376303	0.391117	95.351530	5.683935	0.106943	24.055584	24.055584	24.055584	0.901782	1.563401	2.830000	1.329771	0.497894	-19.310256
133.113960	0.109601	0.381065	0.396513	95.378615	5.659313	0.104308	23.446566	23.446566	23.446566	0.888250	1.560530	2.830000	1.340553	0.500061	-18.688953
135.031404	0.112657	0.385867	0.401977	95.404603	5.635623	0.101726	22.838059	22.838059	22.838059	0.874880	1.557698	2.830000	1.351050	0.502163	-18.067220
136.976468	0.115795	0.390710	0.407508	95.429494	5.612849	0.099197	22.230093	22.230093	22.230093	0.861672	1.554905	2.830000	1.361257	0.504200	-17.445095
138.949549	0.119016	0.395592	0.413108	95.453288	5.590975	0.096721	21.622694	21.622694	21.622694	0.848626	1.552146	2.830000	1.371167	0.506173	-16.822611
140.951052	0.122323	0.400514	0.418777	95.475985	5.569984	0.094296	21.015887	21.015887	21.015887	0.835743	1.549421	2.830000	1.380777	0.508080	-16.199801
142.981386	0.125717	0.405473	0.424515	95.497585	5.549861	0.091922	20.409695	20.409695	20.409695	0.823023	1.546725	2.830000	1.390080	0.509923	-15.576695
145.040966	0.129201	0.410470	0.430324	95.518088	5.530592	0.089598	19.804142	19.804142	19.804142	0.810466	1.544058	2.830000	1.399071	0.511699	-14.953324
147.130213	0.132776	0.415504	0.436203	95.537495	5.512163	0.087323	19.199249	19.199249	19.199249	0.798074	1.541416	2.830000	1.407746	0.513410	-14.329715
149.249555	0.136445	0.420573	0.442152	95.555805	5.494561	0.085097	18.595035	18.595035	18.595035	0.785844	1.538796	2.830000	1.416099	0.515055	-13.705896
151.399424	0.140210	0.425676	0.448173	95.573019	5.477772	0.082919	17.991520	17.991520	17.991520	0.773779	1.536198	2.830000	1.424128	0.516633	-13.081891
153.580262	0.144073	0.430814	0.454266	95.589135	5.461786	0.080788	17.388719	17.388719	17.388719	0.761876	1.533618	2.830000	1.431827	0.518146	-12.457726
155.792513	0.148036	0.435984	0.460431	95.604153	5.446590	0.078703	16.786650	16.786650	16.786650	0.750137	1.531054	2.830000	1.439193	0.519591	-11.833422
158.036631	0.152102	0.441185	0.466668	95.618072	5.432172	0.076665	16.185326	16.185326	16.185326	0.738559	1.528504	2.830000	1.446222	0.520970	-11.209002
160.313075	0.156273	0.446416	0.472979	95.630892	5.418524	0.074671	15.584762	15.584762	15.584762	0.727145	1.525966	2.830000	1.452910	0.522282	-10.584486
162.622309	0.160551	0.451676	0.479362	95.642612	5.405634	0.072721	14.984969	14.984969	14.984969	0.715891	1.523437	2.830000	1.459255	0.523528	-9.959893
164.964807	0.164939	0.456963	0.485819	95.653231	5.393492	0.070815	14.385959	14.385959	14.385959	0.704798	1.520915	2.830000	1.465253	0.524706	-9.335242
167.341048	0.169438	0.462276	0.492349	95.662747	5.382091	0.068952	13.787740	13.787740	13.787740	0.693865	1.518398	2.830000	1.470901	0.525818	-8.710550
169.751517	0.174051	0.467612	0.498954	95.671158	5.371422	0.067131	13.190323	13.190323	13.190323	0.683091	1.515883	2.830000	1.476198	0.526862	-8.085833
172.196708	0.178781	0.472971	0.505633	95.678463	5.361475	0.065351	12.593714	12.593714	12.593714	0.672475	1.513369	2.830000	1.481139	0.527840	-7.461106
174.677121	0.183630	0.478351	0.512386	95.684660	5.352245	0.063612	11.997921	11.997921	11.997921	0.662016	1.510853	2.830000	1.485724	0.528750	-6.836385
177.193263	0.188601	0.483749	0.519214	95.689747	5.343723	0.061913	11.402948	11.402948	11.402948	0.651713	1.508334	2.830000	1.489950	0.529593	-6.211682
179.745648	0.193695	0.489164	0.526117	95.693720	5.335903	0.060254	10.808801	10.808801	10.808801	0.641565	1.505808	2.830000	1.493815	0.530369	-5.587011
182.334800	0.198916	0.494592	0.533094	95.696578	5.328779	0.058633	10.215483	10.215483	10.215483	0.631570	1.503273	2.830000	1.497319	0.531078	-4.962384
184.961247	0.204265	0.500033	0.540146	95.698316	5.322345	0.057050	9.622996	9.622996	9.622996	0.621727	1.500728	2.830000	1.500458	0.531720	-4.337813
187.625527	0.209746	0.505484	0.547273	95.698933	5.316596	0.055504	9.031344	9.031344	9.031344	0.612035	1.498170	2.830000	1.503234	0.532295	-3.713309
190.328185	0.215361	0.510942	0.554474	95.698423	5.311527	0.053995	8.440526	8.440526	8.440526	0.602492	1.495597	2.830000	1.505643	0.532803	-3.088883
193.069773	0.221112	0.516404	0.561751	95.696784	5.307133	0.052521	7.850543	7.850543	7.850543	0.593096	1.493007	2.830000	1.507686	0.533245	-2.464546
195.850852	0.227001	0.521869	0.569101	95.694011	5.303410	0.051083	7.261395	7.261395	7.261395	0.583847	1.490397	2.830000	1.509363	0.533619	-1.840307
198.671992	0.233032	0.527332	0.576527	95.690099	5.300355	0.049679	6.673081	6.673081	6.673081	0.574742	1.487764	2.830000	1.510672	0.533927	-1.216177
201.533769	0.239207	0.532791	0.584026	95.685043	5.297964	0.048310	6.085599	6.085599	6.085599	0.565780	1.485108	2.830000	1.511613	0.534167	-0.592164
204.436768	0.245528	0.538243	0.591599	95.678839	5.296235	0.046973	5.498946	5.498946	5.498946	0.556959	1.482425	2.830000	1.512187	0.534342	0.031721
207.381584	0.251997	0.543684	0.599245	95.671481	5.295165	0.045669	4.913120	4.913120	4.913120	0.548278	1.479713	2.830000	1.512394	0.534450	0.655469
210.368818	0.258617	0.549111	0.606964	95.662962	5.294752	0.044397	4.328117	4.328117	4.328117	0.539734	1.476970	2.830000	1.512234	0.534492	1.279070
213.399082	0.265391	0.554520	0.614756	95.653277	5.294994	0.043156	3.743933	3.743933	3.743933	0.531326	1.474192	2.830000	1.511708	0.534467	1.902514
216.472995	0.272320	0.559908	0.622620	95.642419	5.295890	0.041946	3.160564	3.160564	3.160564	0.523052	1.471379	2.830000	1.510817	0.534377	2.525792
219.591187	0.279408	0.565271	0.630555	95.630380	5.297440	0.040766	2.578006	2.578006	2.578006	0.514911	1.468526	2.830000	1.509561	0.534220	3.148894
222.754295	0.286656	0.570603	0.638561	95.617155	5.299642	0.039616	1.996251	1.996251	1.996251	0.506900	1.465633	2.830000	1.507942	0.533998	3.771809
225.962966	0.294066	0.575902	0.646636	95.602734	5.302496	0.038494	1.415297	1.415297	1.415297	0.499017	1.462696	2.830000	1.505961	0.533711	4.394525
229.217857	0.301641	0.581163	0.654781	95.587110	5.306003	0.037401	0.835135	0.835135	0.835135	0.491262	1.459712	2.830000	1.503621	0.533358	5.017033
232.519632	0.309382	0.586381	0.662993	95.570274	5.310163	0.036335	0.255760	0.255760	0.255760	0.483631	1.456679	2.830000	1.500922	0.532940	5.639319
235.868968	0.317292	0.591551	0.671273	95.552218	5.314978	0.035296	-0.322834	-0.322834	-0.322834	0.476124	1.453594	2.830000	1.497866	0.532458	6.261372
239.266550	0.325373	0.596668	0.679618	95.532931	5.320448	0.034284	-0.900655	-0.900655	-0.900655	0.468738	1.450455	2.830000	1.494456	0.531910	6.883179
242.713072	0.333626	0.601728	0.688028	95.512405	5.326574	0.033298	-1.477709	-1.477709	-1.477709	0.461471	1.447259	2.830000	1.490695	0.531298	7.504725
246.209240	0.342054	0.606723	0.696501	95.490629	5.333360	0.032337	-2.054004	-2.054004	-2.054004	0.454322	1.444002	2.830000	1.486584	0.530622	8.125997
249.755769	0.350657	0.611651	0.705036	95.467593	5.340807	0.031401	-2.629547	-2.629547	-2.629547	0.447289	1.440683	2.830000	1.482127	0.529882	8.746978
253.353383	0.359437	0.616503	0.713632	95.443285	5.348918	0.030489	-3.204347	-3.204347	-3.204347	0.440370	1.437297	2.830000	1.477326	0.529079	9.367653
257.002820	0.368396	0.621275	0.722286	95.417694	5.357695	0.029601	-3.778410	-3.778410	-3.778410	0.433564	1.433842	2.830000	1.472185	0.528212	9.988005
260.704825	0.377534	0.625959	0.730997	95.390808	5.367143	0.028736	-4.351746	-4.351746	-4.351746	0.426868	1.430316	2.830000	1.466707	0.527282	10.608015
264.460155	0.386854	0.630551	0.739764	95.362616	5.377265	0.027894	-4.924362	-4.924362	-4.924362	0.420282	1.426714	2.830000	1.460895	0.526290	11.227664
268.269580	0.396355	0.635043	0.748583	95.333103	5.388064	0.027074	-5.496267	-5.496267	-5.496267	0.413802	1.423034	2.830000	1.454754	0.525235	11.846933
272.133877	0.406038	0.639428	0.757453	95.302258	5.399546	0.026276	-6.067471	-6.067471	-6.067471	0.407429	1.419272	2.830000	1.448287	0.524118	12.465799
276.053838	0.415904	0.643700	0.766371	95.270065	5.411714	0.025499	-6.637983	-6.637983	-6.637983	0.401159	1.415425	2.830000	1.441498	0.522940	13.084241
280.030263	0.425953	0.647850	0.775336	95.236512	5.424574	0.024743	-7.207811	-7.207811	-7.207811	0.394992	1.411490	2.830000	1.434392	0.521700	13.702235
284.063968	0.436185	0.651873	0.784344	95.201582	5.438131	0.024007	-7.776965	-7.776965	-7.776965	0.388926	1.407462	2.830000	1.426973	0.520399	14.319757
288.155776	0.446601	0.655760	0.793393	95.165262	5.452390	0.023291	-8.345456	-8.345456	-8.345456	0.382960	1.403339	2.830000	1.419247	0.519038	14.936780
292.306525	0.457199	0.659503	0.802480	95.127535	5.467357	0.022594	-8.913294	-8.913294	-8.913294	0.377091	1.399117	2.830000	1.411217	0.517618	15.553277
296.517063	0.467978	0.663095	0.811602	95.088386	5.483039	0.021917	-9.480490	-9.480490	-9.480490	0.371320	1.394793	2.830000	1.402889	0.516137	16.169219
300.788252	0.478939	0.666526	0.820756	95.047796	5.499442	0.021257	-10.047055	-10.047055	-10.047055	0.365643	1.390361	2.830000	1.394269	0.514598	16.784578
305.120965	0.490079	0.669790	0.829937	95.005750	5.516572	0.020616	-10.613001	-10.613001	-10.613001	0.360061	1.385819	2.830000	1.385361	0.513000	17.399322
309.516090	0.501396	0.672877	0.839144	94.962229	5.534438	0.019992	-11.178339	-11.178339	-11.178339	0.354571	1.381162	2.830000	1.376172	0.511344	18.013419
313.974523	0.512890	0.675778	0.848371	94.917214	5.553045	0.019385	-11.743083	-11.743083	-11.743083	0.349172	1.376387	2.830000	1.366707	0.509630	18.626834
318.497179	0.524557	0.678486	0.857615	94.870688	5.572402	0.018795	-12.307247	-12.307247	-12.307247	0.343864	1.371488	2.830000	1.356972	0.507860	19.239534
323.084981	0.536395	0.680989	0.866871	94.822629	5.592517	0.018222	-12.870843	-12.870843	-12.870843	0.338645	1.366463	2.830000	1.346975	0.506033	19.851483
327.738869	0.548401	0.683280	0.876136	94.773018	5.613398	0.017664	-13.433887	-13.433887	-13.433887	0.333513	1.361306	2.830000	1.336720	0.504151	20.462642
332.459793	0.560571	0.685349	0.885405	94.721833	5.635054	0.017122	-13.996394	-13.996394	-13.996394	0.328469	1.356013	2.830000	1.326215	0.502213	21.072973
337.248720	0.572901	0.687186	0.894673	94.669054	5.657493	0.016595	-14.558382	-14.558382	-14.558382	0.323510	1.350580	2.830000	1.315466	0.500222	21.682436
342.106630	0.585386	0.688782	0.903935	94.614658	5.680724	0.016083	-15.119866	-15.119866	-15.119866	0.318635	1.345002	2.830000	1.304480	0.498176	22.290989
347.034515	0.598023	0.690127	0.913185	94.558622	5.704757	0.015585	-15.680865	-15.680865	-15.680865	0.313845	1.339274	2.830000	1.293264	0.496077	22.898592
352.033384	0.610805	0.691212	0.922419	94.500922	5.729601	0.015102	-16.241400	-16.241400	-16.241400	0.309137	1.333391	2.830000	1.281826	0.493926	23.505198
357.104260	0.623726	0.692026	0.931630	94.441534	5.755267	0.014632	-16.801489	-16.801489	-16.801489	0.304511	1.327349	2.830000	1.270173	0.491723	24.110765
362.248179	0.636780	0.692560	0.940812	94.380433	5.781765	0.014175	-17.361154	-17.361154	-17.361154	0.299966	1.321142	2.830000	1.258311	0.489470	24.715246
367.466194	0.649960	0.692803	0.949960	94.317593	5.809104	0.013732	-17.920419	-17.920419	-17.920419	0.295500	1.314766	2.830000	1.246250	0.487166	25.318593
372.759372	0.663258	0.692747	0.959067	94.252986	5.837297	0.013301	-18.479307	-18.479307	-18.479307	0.291114	1.308215	2.830000	1.233996	0.484813	25.920760
378.128796	0.676666	0.692380	0.968126	94.186585	5.866353	0.012883	-19.037843	-19.037843	-19.037843	0.286807	1.301484	2.830000	1.221557	0.482412	26.521695
383.575563	0.690174	0.691694	0.977129	94.118361	5.896284	0.012477	-19.596054	-19.596054	-19.596054	0.282577	1.294568	2.830000	1.208942	0.479963	27.121351
389.100789	0.703775	0.690679	0.986071	94.048285	5.927102	0.012082	-20.153969	-20.153969	-20.153969	0.278423	1.287462	2.830000	1.196158	0.477468	27.719675
394.705603	0.717456	0.689324	0.994943	93.976327	5.958819	0.011699	-20.711616	-20.711616	-20.711616	0.274345	1.280159	2.830000	1.183213	0.474926	28.316615
400.391152	0.731208	0.687621	1.003737	93.902454	5.991446	0.011328	-21.269027	-21.269027	-21.269027	0.270343	1.272655	2.830000	1.170116	0.472340	28.912119
406.158599	0.745018	0.685561	1.012445	93.826634	6.024997	0.010967	-21.826233	-21.826233	-21.826233	0.266414	1.264944	2.830000	1.156875	0.469710	29.506133
412.009123	0.758875	0.683134	1.021060	93.748834	6.059483	0.010616	-22.383270	-22.383270	-22.383270	0.262559	1.257020	2.830000	1.143498	0.467037	30.098602
417.943921	0.772765	0.680332	1.029571	93.669019	6.094918	0.010276	-22.940171	-22.940171	-22.940171	0.258777	1.248878	2.830000	1.129994	0.464321	30.689472
423.964207	0.786675	0.677146	1.037971	93.587153	6.131315	0.009946	-23.496975	-23.496975	-23.496975	0.255066	1.240512	2.830000	1.116371	0.461565	31.278688
430.071212	0.800590	0.673570	1.046251	93.503198	6.168688	0.009626	-24.053720	-24.053720	-24.053720	0.251426	1.231917	2.830000	1.102637	0.458769	31.866191
436.266186	0.814494	0.669594	1.054399	93.417118	6.207050	0.009315	-24.610444	-24.610444	-24.610444	0.247856	1.223087	2.830000	1.088802	0.455933	32.451927
442.550395	0.828372	0.665213	1.062407	93.328871	6.246415	0.009013	-25.167190	-25.167190	-25.167190	0.244355	1.214016	2.830000	1.074872	0.453060	33.035837
448.925126	0.842207	0.660420	1.070265	93.238418	6.286797	0.008721	-25.724000	-25.724000	-25.724000	0.240922	1.204700	2.830000	1.060858	0.450150	33.617864
455.391681	0.855982	0.655209	1.077963	93.145716	6.328212	0.008437	-26.280916	-26.280916	-26.280916	0.237556	1.195132	2.830000	1.046768	0.447204	34.197949
461.951385	0.869677	0.649575	1.085489	93.050722	6.370674	0.008162	-26.837984	-26.837984	-26.837984	0.234256	1.185307	2.830000	1.032609	0.444223	34.776035
468.605578	0.883274	0.643513	1.092832	92.953390	6.414198	0.007895	-27.395249	-27.395249	-27.395249	0.231020	1.175220	2.830000	1.018390	0.441209	35.352062
475.355621	0.896754	0.637020	1.099983	92.853675	6.458800	0.007636	-27.952756	-27.952756	-27.952756	0.227849	1.164866	2.830000	1.004120	0.438162	35.925972
482.202895	0.910094	0.630094	1.106928	92.751529	6.504495	0.007384	-28.510553	-28.510553	-28.510553	0.224739	1.154241	2.830000	0.989808	0.435084	36.497705
489.148802	0.923276	0.622732	1.113657	92.646903	6.551300	0.007141	-29.068685	-29.068685	-29.068685	0.221690	1.143339	2.830000	0.975460	0.431975	37.067203
496.194760	0.936275	0.614934	1.120158	92.539745	6.599231	0.006905	-29.627200	-29.627200	-29.627200	0.218701	1.132156	2.830000	0.961087	0.428838	37.634405
503.342213	0.949070	0.606700	1.126419	92.430005	6.648304	0.006676	-30.186143	-30.186143	-30.186143	0.215770	1.120688	2.830000	0.946695	0.425672	38.199253
510.592621	0.961639	0.598031	1.132427	92.317627	6.698537	0.006454	-30.745560	-30.745560	-30.745560	0.212895	1.108932	2.830000	0.932292	0.422480	38.761686
517.947468	0.973956	0.588932	1.138170	92.202558	6.749946	0.006239	-31.305497	-31.305497	-31.305497	0.210074	1.096884	2.830000	0.917888	0.419263	39.321647
525.408258	0.985998	0.579404	1.143635	92.084741	6.802550	0.006030	-31.865995	-31.865995	-31.865995	0.207307	1.084541	2.830000	0.903488	0.416020	39.879074
532.976517	0.997740	0.569456	1.148810	91.964117	6.856366	0.005828	-32.427095	-32.427095	-32.427095	0.204590	1.071900	2.830000	0.889102	0.412755	40.433910
540.653794	1.009158	0.559092	1.153683	91.840628	6.911412	0.005632	-32.988837	-32.988837	-32.988837	0.201922	1.058960	2.830000	0.874737	0.409468	40.986094
548.441658	1.020226	0.548322	1.158239	91.714213	6.967707	0.005442	-33.551256	-33.551256	-33.551256	0.199300	1.045720	2.830000	0.860400	0.406159	41.535569
556.341702	1.030919	0.537156	1.162467	91.584810	7.025270	0.005258	-34.114384	-34.114384	-34.114384	0.196723	1.032178	2.830000	0.846099	0.402832	42.082274
564.355543	1.041211	0.525606	1.166354	91.452356	7.084119	0.005079	-34.678250	-34.678250	-34.678250	0.194187	1.018334	2.830000	0.831840	0.399485	42.626151
572.484820	1.051076	0.513686	1.169886	91.316788	7.144275	0.004907	-35.242875	-35.242875	-35.242875	0.191691	1.004190	2.830000	0.817631	0.396121	43.167142
580.731195	1.060490	0.501411	1.173052	91.178040	7.205756	0.004739	-35.808278	-35.808278	-35.808278	0.189231	0.989747	2.830000	0.803479	0.392742	43.705188
589.096355	1.069426	0.488798	1.175839	91.036046	7.268584	0.004577	-36.374470	-36.374470	-36.374470	0.186805	0.975007	2.830000	0.789389	0.389347	44.240232
597.582011	1.077861	0.475868	1.178234	90.890742	7.332779	0.004420	-36.941456	-36.941456	-36.941456	0.184411	0.959974	2.830000	0.775370	0.385938	44.772214
606.189899	1.085770	0.462642	1.180226	90.742060	7.398360	0.004267	-37.509232	-37.509232	-37.509232	0.182044	0.944653	2.830000	0.761427	0.382517	45.301078
614.921780	1.093129	0.449142	1.181803	90.589934	7.465350	0.004120	-38.077785	-38.077785	-38.077785	0.179701	0.929048	2.830000	0.747566	0.379085	45.826767
623.779440	1.099915	0.435395	1.182955	90.434299	7.533770	0.003977	-38.647095	-38.647095	-38.647095	0.177381	0.913167	2.830000	0.733794	0.375642	46.349222
632.764690	1.106107	0.421429	1.183670	90.275088	7.603641	0.003838	-39.217129	-39.217129	-39.217129	0.175078	0.897018	2.830000	0.720115	0.372190	46.868386
641.879368	1.111685	0.407273	1.183940	90.112239	7.674985	0.003704	-39.787845	-39.787845	-39.787845	0.172791	0.880610	2.830000	0.706536	0.368730	47.384204
651.125339	1.116628	0.392958	1.183754	89.945688	7.747825	0.003574	-40.359186	-40.359186	-40.359186	0.170514	0.863954	2.830000	0.693063	0.365264	47.896619
660.504493	1.120919	0.378519	1.183104	89.775374	7.822184	0.003448	-40.931086	-40.931086	-40.931086	0.168246	0.847061	2.830000	0.679700	0.361792	48.405574
670.018750	1.124542	0.363992	1.181984	89.601240	7.898083	0.003327	-41.503462	-41.503462	-41.503462	0.165981	0.829945	2.830000	0.666452	0.358315	48.911013
679.670056	1.127484	0.349415	1.180386	89.423230	7.975546	0.003209	-42.076218	-42.076218	-42.076218	0.163718	0.812622	2.830000	0.653324	0.354835	49.412882
689.460384	1.129733	0.334827	1.178307	89.241294	8.054597	0.003094	-42.649242	-42.649242	-42.649242	0.161451	0.795107	2.830000	0.640322	0.351352	49.911125
699.391737	1.131280	0.320271	1.175741	89.055386	8.135259	0.002984	-43.222407	-43.222407	-43.222407	0.159179	0.777419	2.830000	0.627448	0.347868	50.405688
709.466146	1.132117	0.305789	1.172687	88.865465	8.217556	0.002877	-43.795569	-43.795569	-43.795569	0.156896	0.759577	2.830000	0.614708	0.344385	50.896515
719.685673	1.132242	0.291426	1.169145	88.671496	8.301512	0.002773	-44.368565	-44.368565	-44.368565	0.154600	0.741603	2.830000	0.602105	0.340902	51.383555
730.052407	1.131653	0.277229	1.165116	88.473454	8.387151	0.002673	-44.941217	-44.941217	-44.941217	0.152288	0.723519	2.830000	0.589644	0.337421	51.866752
740.568469	1.130355	0.263245	1.160603	88.271319	8.474497	0.002576	-45.513327	-45.513327	-45.513327	0.149956	0.705348	2.830000	0.577328	0.333943	52.346057
751.236010	1.128352	0.249523	1.155612	88.065083	8.563576	0.002482	-46.084681	-46.084681	-46.084681	0.147601	0.687118	2.830000	0.565160	0.330469	52.821416
762.057212	1.125655	0.236111	1.150152	87.854748	8.654411	0.002391	-46.655045	-46.655045	-46.655045	0.145222	0.668854	2.830000	0.553143	0.327001	53.292779
773.034288	1.122279	0.223059	1.144231	87.640329	8.747027	0.002303	-47.224166	-47.224166	-47.224166	0.142815	0.650585	2.830000	0.541281	0.323538	53.760097
784.169484	1.118241	0.210417	1.137865	87.421853	8.841450	0.002218	-47.791777	-47.791777	-47.791777	0.140377	0.632341	2.830000	0.529576	0.320083	54.223322
795.465078	1.113563	0.198234	1.131070	87.199365	8.937704	0.002136	-48.357589	-48.357589	-48.357589	0.137909	0.614150	2.830000	0.518031	0.316636	54.682405
806.923378	1.108274	0.186559	1.123866	86.972923	9.035813	0.002056	-48.921300	-48.921300	-48.921300	0.135407	0.596046	2.830000	0.506649	0.313198	55.137303
818.546731	1.102403	0.175439	1.116275	86.742605	9.135803	0.001979	-49.482591	-49.482591	-49.482591	0.132871	0.578059	2.830000	0.495430	0.309770	55.587970
830.337512	1.095987	0.164921	1.108326	86.508508	9.237699	0.001905	-50.041129	-50.041129	-50.041129	0.130300	0.560223	2.830000	0.484378	0.306353	56.034364
842.298134	1.089067	0.155050	1.100049	86.270751	9.341526	0.001833	-50.596566	-50.596566	-50.596566	0.127694	0.542569	2.830000	0.473494	0.302948	56.476447
854.431043	1.081687	0.145868	1.091478	86.029473	9.447307	0.001763	-51.148545	-51.148545	-51.148545	0.125053	0.525131	2.830000	0.462779	0.299556	56.914178
866.738721	1.073899	0.137414	1.082655	85.784841	9.555069	0.001696	-51.696698	-51.696698	-51.696698	0.122378	0.507942	2.830000	0.452235	0.296178	57.347524
879.223685	1.065755	0.129723	1.073621	85.537042	9.664835	0.001631	-52.240651	-52.240651	-52.240651	0.119671	0.491033	2.830000	0.441864	0.292814	57.776451
891.888489	1.057314	0.122828	1.064425	85.286293	9.776631	0.001568	-52.780022	-52.780022	-52.780022	0.116932	0.474436	2.830000	0.431665	0.289466	58.200928
904.735724	1.048640	0.116756	1.055120	85.032838	9.890480	0.001508	-53.314429	-53.314429	-53.314429	0.114165	0.458181	2.830000	0.421639	0.286134	58.620929
917.768017	1.039798	0.111530	1.045763	84.776946	10.006407	0.001449	-53.843489	-53.843489	-53.843489	0.111372	0.442298	2.830000	0.411788	0.282819	59.036429
930.988035	1.030859	0.107166	1.036414	84.518916	10.124437	0.001393	-54.366822	-54.366822	-54.366822	0.108556	0.426814	2.830000	0.402112	0.279522	59.447408
944.398480	1.021895	0.103676	1.027141	84.259072	10.244593	0.001338	-54.884056	-54.884056	-54.884056	0.105723	0.411756	2.830000	0.392610	0.276243	59.853848
958.002097	1.012982	0.101064	1.018011	83.997767	10.366900	0.001286	-55.394826	-55.394826	-55.394826	0.102875	0.397148	2.830000	0.383283	0.272984	60.255736
971.801667	1.004197	0.099327	1.009098	83.735377	10.491381	0.001235	-55.898782	-55.898782	-55.898782	0.100018	0.383010	2.830000	0.374130	0.269745	60.653060
985.800014	0.995620	0.098455	1.000476	83.472299	10.618062	0.001187	-56.395589	-56.395589	-56.395589	0.097157	0.369362	2.830000	0.365150	0.266527	61.045816
1000.000000	0.987329	0.098430	0.992223	83.208952	10.746966	0.001140	-56.884931	-56.884931	-56.884931	0.094299	0.356221	2.830000	0.356344	0.263330	61.434000
1014.404530	0.979403	0.099225	0.984416	82.945768	10.878117	0.001094	-57.366518	-57.366518	-57.366518	0.091449	0.343600	2.830000	0.347711	0.260155	61.817614
1029.016551	0.971921	0.100806	0.977134	82.683190	11.011539	0.001051	-57.840084	-57.840084	-57.840084	0.088613	0.331508	2.830000	0.339249	0.257003	62.196663
1043.839051	0.964957	0.103129	0.970453	82.421664	11.147257	0.001009	-58.305395	-58.305395	-58.305395	0.085799	0.319954	2.830000	0.330958	0.253874	62.571157
1058.875063	0.958586	0.106142	0.964445	82.161637	11.285295	0.000968	-58.762248	-58.762248	-58.762248	0.083013	0.308942	2.830000	0.322836	0.250769	62.941108
1074.127661	0.952876	0.109785	0.959180	81.903540	11.425678	0.000929	-59.210477	-59.210477	-59.210477	0.080262	0.298470	2.830000	0.314882	0.247688	63.306534
1089.599965	0.947890	0.113989	0.954720	81.647793	11.568430	0.000892	-59.649956	-59.649956	-59.649956	0.077553	0.288538	2.830000	0.307094	0.244631	63.667456
1105.295141	0.943686	0.118676	0.951119	81.394782	11.713578	0.000856	-60.080598	-60.080598	-60.080598	0.074894	0.279138	2.830000	0.299470	0.241600	64.023897
1121.216399	0.940312	0.123762	0.948422	81.144862	11.861147	0.000821	-60.502362	-60.502362	-60.502362	0.072292	0.270261	2.830000	0.292010	0.238594	64.375886
1137.366994	0.937811	0.129154	0.946663	80.898342	12.011162	0.000788	-60.915251	-60.915251	-60.915251	0.069752	0.261894	2.830000	0.284710	0.235614	64.723453
1153.750232	0.936214	0.134756	0.945862	80.655478	12.163651	0.000756	-61.319312	-61.319312	-61.319312	0.067283	0.254021	2.830000	0.277570	0.232660	65.066633
1170.369462	0.935540	0.140463	0.946026	80.416463	12.318640	0.000725	-61.714643	-61.714643	-61.714643	0.064889	0.246624	2.830000	0.270586	0.229733	65.405461
1187.228084	0.935800	0.146169	0.947147	80.181424	12.476157	0.000696	-62.101388	-62.101388	-62.101388	0.062577	0.239680	2.830000	0.263758	0.226833	65.739978
1204.329547	0.936989	0.151764	0.949200	79.950414	12.636231	0.000667	-62.479737	-62.479737	-62.479737	0.060353	0.233166	2.830000	0.257082	0.223959	66.070225
1221.677349	0.939091	0.157135	0.952147	79.723409	12.798890	0.000640	-62.849927	-62.849927	-62.849927	0.058220	0.227055	2.830000	0.250556	0.221113	66.396247
1239.275037	0.942074	0.162173	0.955931	79.500306	12.964164	0.000614	-63.212240	-63.212240	-63.212240	0.056183	0.221319	2.830000	0.244178	0.218294	66.718089
1257.126212	0.945894	0.166768	0.960483	79.280922	13.132085	0.000589	-63.567002	-63.567002	-63.567002	0.054245	0.215928	2.830000	0.237945	0.215503	67.035798
1275.234525	0.950491	0.170816	0.965718	79.064995	13.302682	0.000565	-63.914574	-63.914574	-63.914574	0.052410	0.210851	2.830000	0.231856	0.212739	67.349424
1293.603680	0.955791	0.174219	0.971539	78.852190	13.475988	0.000542	-64.255358	-64.255358	-64.255358	0.050678	0.206055	2.830000	0.225907	0.210003	67.659015
1312.237433	0.961707	0.176885	0.977838	78.642104	13.652038	0.000520	-64.589785	-64.589785	-64.589785	0.049051	0.201507	2.830000	0.220097	0.207295	67.964622
1331.139597	0.968138	0.178736	0.984498	78.434272	13.830864	0.000499	-64.918312	-64.918312	-64.918312	0.047528	0.197175	2.830000	0.214422	0.204615	68.266296
1350.314038	0.974971	0.179703	0.991394	78.228175	14.012502	0.000479	-65.241419	-65.241419	-65.241419	0.046109	0.193025	2.830000	0.208880	0.201963	68.564089
1369.764677	0.982083	0.179733	0.998394	78.023251	14.196988	0.000459	-65.559597	-65.559597	-65.559597	0.044790	0.189026	2.830000	0.203469	0.199338	68.858050
1389.495494	0.989342	0.178790	1.005368	77.818908	14.384360	0.000440	-65.873348	-65.873348	-65.873348	0.043570	0.185145	2.830000	0.198186	0.196741	69.148230
1409.510524	0.996609	0.176855	1.012179	77.614527	14.574655	0.000423	-66.183169	-66.183169	-66.183169	0.042444	0.181353	2.830000	0.193029	0.194173	69.434681
1429.813862	1.003739	0.173929	1.018697	77.409481	14.767913	0.000405	-66.489551	-66.489551	-66.489551	0.041407	0.177622	2.830000	0.187994	0.191632	69.717450
1450.409659	1.010589	0.170035	1.024794	77.203147	14.964173	0.000389	-66.792969	-66.792969	-66.792969	0.040453	0.173927	2.830000	0.183081	0.189118	69.996586
1471.302129	1.017014	0.165214	1.030347	76.994909	15.163478	0.000373	-67.093868	-67.093868	-67.093868	0.039574	0.170243	2.830000	0.178286	0.186633	70.272137
1492.495545	1.022877	0.159533	1.035243	76.784182	15.365869	0.000358	-67.392662	-67.392662	-67.392662	0.038763	0.166551	2.830000	0.173606	0.184174	70.544148
1513.994242	1.028046	0.153079	1.039381	76.570412	15.571390	0.000343	-67.689718	-67.689718	-67.689718	0.038011	0.162834	2.830000	0.169040	0.181744	70.812664
1535.802619	1.032405	0.145959	1.042671	76.353097	15.780085	0.000330	-67.985354	-67.985354	-67.985354	0.037309	0.159079	2.830000	0.164585	0.179340	71.077726
1557.925134	1.035849	0.138300	1.045040	76.131793	15.991999	0.000316	-68.279826	-68.279826	-68.279826	0.036648	0.155276	2.830000	0.160239	0.176963	71.339377
1580.366314	1.038295	0.130248	1.046433	75.906125	16.207178	0.000303	-68.573324	-68.573324	-68.573324	0.036017	0.151420	2.830000	0.156000	0.174614	71.597656
1603.130749	1.039684	0.121962	1.046813	75.675804	16.425669	0.000291	-68.865966	-68.865966	-68.865966	0.035406	0.147509	2.830000	0.151864	0.172291	71.852599
1626.223094	1.039978	0.113614	1.046165	75.440629	16.647520	0.000279	-69.157794	-69.157794	-69.157794	0.034805	0.143546	2.830000	0.147831	0.169995	72.104243
1649.648074	1.039171	0.105381	1.044500	75.200506	16.872778	0.000268	-69.448770	-69.448770	-69.448770	0.034205	0.139537	2.830000	0.143898	0.167726	72.352622
1673.410480	1.037284	0.097446	1.041851	74.955453	17.101492	0.000257	-69.738777	-69.738777	-69.738777	0.033597	0.135493	2.830000	0.140063	0.165483	72.597769
1697.515172	1.034371	0.089986	1.038278	74.705606	17.333712	0.000246	-70.027619	-70.027619	-70.027619	0.032973	0.131427	2.830000	0.136324	0.163266	72.839714
1721.967081	1.030517	0.083174	1.033868	74.451231	17.569489	0.000236	-70.315028	-70.315028	-70.315028	0.032325	0.127356	2.830000	0.132678	0.161075	73.078487
1746.771208	1.025837	0.077166	1.028735	74.192725	17.808871	0.000227	-70.600669	-70.600669	-70.600669	0.031648	0.123299	2.830000	0.129124	0.158910	73.314118
1771.932627	1.020474	0.072102	1.023018	73.930616	18.051910	0.000217	-70.884146	-70.884146	-70.884146	0.030939	0.119278	2.830000	0.125660	0.156770	73.546634
1797.456484	1.014599	0.068093	1.016882	73.665558	18.298656	0.000208	-71.165022	-71.165022	-71.165022	0.030193	0.115314	2.830000	0.122284	0.154656	73.776062
1823.348001	1.008404	0.065223	1.010511	73.398326	18.549162	0.000200	-71.442825	-71.442825	-71.442825	0.029411	0.111431	2.830000	0.118993	0.152568	74.002430
1849.612473	1.002095	0.063540	1.004107	73.129797	18.803478	0.000192	-71.717066	-71.717066	-71.717066	0.028594	0.107650	2.830000	0.115787	0.150504	74.225765
1876.255272	0.995891	0.063053	0.997885	72.860925	19.061656	0.000184	-71.987259	-71.987259	-71.987259	0.027744	0.103993	2.830000	0.112663	0.148466	74.446094
1903.281848	0.990012	0.063729	0.992062	72.592719	19.323749	0.000176	-72.252937	-72.252937	-72.252937	0.026867	0.100480	2.830000	0.109620	0.146452	74.663446
1930.697729	0.984675	0.065492	0.986850	72.326194	19.589808	0.000169	-72.513673	-72.513673	-72.513673	0.025968	0.097126	2.830000	0.106655	0.144463	74.877848
1958.508523	0.980078	0.068226	0.982450	72.062340	19.859888	0.000162	-72.769093	-72.769093	-72.769093	0.025056	0.093944	2.830000	0.103767	0.142498	75.089331
1986.719919	0.976402	0.071771	0.979036	71.802064	20.134040	0.000155	-73.018902	-73.018902	-73.018902	0.024140	0.090945	2.830000	0.100954	0.140558	75.297925
2015.337686	0.973792	0.075933	0.976748	71.546145	20.412319	0.000149	-73.262889	-73.262889	-73.262889	0.023229	0.088132	2.830000	0.098214	0.138642	75.503662
2044.367679	0.972355	0.080489	0.975681	71.295184	20.694780	0.000142	-73.500948	-73.500948	-73.500948	0.022334	0.085507	2.830000	0.095546	0.136749	75.706576
2073.815835	0.972153	0.085190	0.975878	71.049564	20.981477	0.000137	-73.733081	-73.733081	-73.733081	0.021466	0.083064	2.830000	0.092948	0.134881	75.906701
2103.688178	0.973192	0.089777	0.977324	70.809415	21.272467	0.000131	-73.959406	-73.959406	-73.959406	0.020634	0.080795	2.830000	0.090418	0.133036	76.104072
2133.990819	0.975427	0.093989	0.979945	70.574594	21.567806	0.000125	-74.180154	-74.180154	-74.180154	0.019847	0.078686	2.830000	0.087955	0.131214	76.298727
2164.729954	0.978754	0.097575	0.983605	70.344683	21.867553	0.000120	-74.395664	-74.395664	-74.395664	0.019114	0.076720	2.830000	0.085556	0.129415	76.490702
2195.911873	0.983013	0.100307	0.988118	70.118998	22.171767	0.000115	-74.606375	-74.606375	-74.606375	0.018440	0.074879	2.830000	0.083221	0.127640	76.680036
2227.542952	0.987997	0.101995	0.993248	69.896620	22.480509	0.000110	-74.812805	-74.812805	-74.812805	0.017829	0.073139	2.830000	0.080948	0.125887	76.866768
2259.629662	0.993454	0.102494	0.998727	69.676438	22.793841	0.000106	-75.015535	-75.015535	-75.015535	0.017284	0.071478	2.830000	0.078735	0.124156	77.050935
2292.178566	0.999100	0.101719	1.004265	69.457205	23.111826	0.000101	-75.215181	-75.215181	-75.215181	0.016804	0.069871	2.830000	0.076581	0.122448	77.232577
2325.196322	1.004635	0.099652	1.009565	69.237599	23.434531	0.000097	-75.412363	-75.412363	-75.412363	0.016385	0.068296	2.830000	0.074484	0.120762	77.411731
2358.689683	1.009753	0.096346	1.014339	69.016300	23.762020	0.000093	-75.607682	-75.607682	-75.607682	0.016022	0.066732	2.830000	0.072442	0.119098	77.588433
2392.665500	1.014166	0.091926	1.018324	68.792052	24.094362	0.000089	-75.801680	-75.801680	-75.801680	0.015707	0.065161	2.830000	0.070455	0.117455	77.762721
2427.130723	1.017617	0.086587	1.021294	68.563739	24.431627	0.000086	-75.994815	-75.994815	-75.994815	0.015431	0.063569	2.830000	0.068521	0.115833	77.934628
2462.092401	1.019900	0.080584	1.023079	68.330449	24.773885	0.000082	-76.187433	-76.187433	-76.187433	0.015181	0.061946	2.830000	0.066639	0.114233	78.104187
2497.557686	1.020874	0.074224	1.023569	68.091535	25.121208	0.000079	-76.379746	-76.379746	-76.379746	0.014946	0.060288	2.830000	0.064806	0.112654	78.271431
2533.533832	1.020478	0.067845	1.022731	67.846661	25.473670	0.000075	-76.571816	-76.571816	-76.571816	0.014714	0.058595	2.830000	0.063023	0.111095	78.436389
2570.028197	1.018739	0.061796	1.020612	67.595846	25.831344	0.000072	-76.763551	-76.763551	-76.763551	0.014472	0.056873	2.830000	0.061288	0.109557	78.599089
2607.048246	1.015775	0.056417	1.017340	67.339481	26.194307	0.000069	-76.954706	-76.954706	-76.954706	0.014211	0.055132	2.830000	0.059599	0.108039	78.759558
2644.601552	1.011790	0.052010	1.013126	67.078336	26.562634	0.000066	-77.144900	-77.144900	-77.144900	0.013921	0.053387	2.830000	0.057955	0.106541	78.917823
2682.695795	1.007070	0.048820	1.008252	66.813535	26.936401	0.000064	-77.333637	-77.333637	-77.333637	0.013598	0.051654	2.830000	0.056356	0.105062	79.073907
2721.338768	1.001960	0.047009	1.003062	66.546508	27.315686	0.000061	-77.520347	-77.520347	-77.520347	0.013239	0.049953	2.830000	0.054800	0.103603	79.227836
2760.538375	0.996847	0.046641	0.997938	66.278907	27.700566	0.000058	-77.704422	-77.704422	-77.704422	0.012844	0.048303	2.830000	0.053286	0.102164	79.379632
2800.302634	0.992128	0.047671	0.993272	66.012493	28.091120	0.000056	-77.885266	-77.885266	-77.885266	0.012418	0.046721	2.830000	0.051813	0.100744	79.529320
2840.639679	0.988178	0.049942	0.989439	65.748999	28.487427	0.000054	-78.062349	-78.062349	-78.062349	0.011969	0.045221	2.830000	0.050380	0.099342	79.676924
2881.557759	0.985323	0.053192	0.986758	65.489967	28.889567	0.000051	-78.235245	-78.235245	-78.235245	0.011506	0.043815	2.830000	0.048985	0.097959	79.822467
2923.065245	0.983804	0.057070	0.985458	65.236592	29.297620	0.000049	-78.403683	-78.403683	-78.403683	0.011041	0.042509	2.830000	0.047629	0.096595	79.965977
2965.170628	0.983751	0.061161	0.985651	64.989584	29.711667	0.000047	-78.567569	-78.567569	-78.567569	0.010587	0.041303	2.830000	0.046310	0.095249	80.107479
3007.882518	0.985169	0.065020	0.987313	64.749063	30.131791	0.000045	-78.727006	-78.727006	-78.727006	0.010157	0.040192	2.830000	0.045026	0.093921	80.247001
3051.209653	0.987926	0.068212	0.990278	64.514516	30.558076	0.000043	-78.882292	-78.882292	-78.882292	0.009762	0.039165	2.830000	0.043778	0.092611	80.384570
3095.160895	0.991760	0.070354	0.994252	64.284826	30.990608	0.000042	-79.033897	-79.033897	-79.033897	0.009410	0.038207	2.830000	0.042563	0.091318	80.520215
3139.745234	0.996294	0.071157	0.998832	64.058358	31.429473	0.000040	-79.182433	-79.182433	-79.182433	0.009108	0.037301	2.830000	0.041382	0.090043	80.653965
3184.971790	1.001074	0.070459	1.003551	63.833119	31.874763	0.000038	-79.328593	-79.328593	-79.328593	0.008855	0.036427	2.830000	0.040233	0.088785	80.785849
3230.849813	1.005605	0.068249	1.007918	63.606954	32.326566	0.000037	-79.473092	-79.473092	-79.473092	0.008651	0.035566	2.830000	0.039116	0.087544	80.915895
3277.388687	1.009405	0.064679	1.011475	63.377766	32.784977	0.000035	-79.616596	-79.616596	-79.616596	0.008486	0.034702	2.830000	0.038029	0.086320	81.044132
3324.597932	1.012059	0.060054	1.013839	63.143740	33.250090	0.000034	-79.759649	-79.759649	-79.759649	0.008352	0.033822	2.830000	0.036972	0.085113	81.170585
3372.487204	1.013268	0.054809	1.014750	62.903547	33.722003	0.000032	-79.902615	-79.902615	-79.902615	0.008235	0.032918	2.830000	0.035943	0.083921	81.295281
3421.066299	1.012895	0.049464	1.014102	62.656508	34.200812	0.000031	-80.045637	-80.045637	-80.045637	0.008121	0.031987	2.830000	0.034943	0.082747	81.418244
3470.345152	1.010985	0.044566	1.011966	62.402709	34.686619	0.000030	-80.188614	-80.188614	-80.188614	0.007996	0.031036	2.830000	0.033971	0.081588	81.539495
3520.333844	1.007773	0.040624	1.008591	62.143036	35.179524	0.000028	-80.331211	-80.331211	-80.331211	0.007848	0.030072	2.830000	0.033025	0.080445	81.659058
3571.042600	1.003666	0.038044	1.004387	61.879128	35.679630	0.000027	-80.472894	-80.472894	-80.472894	0.007670	0.029110	2.830000	0.032105	0.079317	81.776953
3622.481792	0.999199	0.037065	0.999886	61.613224	36.187038	0.000026	-80.613003	-80.613003	-80.613003	0.007457	0.028166	2.830000	0.031210	0.078205	81.893199
3674.661941	0.994968	0.037722	0.995683	61.347916	36.701854	0.000025	-80.750831	-80.750831	-80.750831	0.007213	0.027256	2.830000	0.030340	0.077108	82.007815
3727.593720	0.991555	0.039826	0.992354	61.085809	37.224181	0.000024	-80.885726	-80.885726	-80.885726	0.006943	0.026396	2.830000	0.029494	0.076026	82.120823
3781.287957	0.989442	0.042980	0.990375	60.829134	37.754125	0.000023	-81.017185	-81.017185	-81.017185	0.006658	0.025595	2.830000	0.028671	0.074959	82.232241
3835.755635	0.988934	0.046626	0.990033	60.579379	38.291794	0.000022	-81.144935	-81.144935	-81.144935	0.006374	0.024858	2.830000	0.027872	0.073906	82.342090
3891.007893	0.990107	0.050118	0.991375	60.336994	38.837294	0.000021	-81.268981	-81.268981	-81.268981	0.006103	0.024184	2.830000	0.027094	0.072868	82.450392
3947.056035	0.992777	0.052815	0.994181	60.101263	39.390737	0.000020	-81.389618	-81.389618	-81.389618	0.005861	0.023564	2.830000	0.026337	0.071844	82.557169
4003.911523	0.996520	0.054188	0.997992	59.870369	39.952235	0.000019	-81.507397	-81.507397	-81.507397	0.005655	0.022986	2.830000	0.025602	0.070835	82.662443
4061.585988	1.000724	0.053910	1.002175	59.641653	40.521900	0.000018	-81.623043	-81.623043	-81.623043	0.005492	0.022433	2.830000	0.024887	0.069839	82.766238
4120.091227	1.004685	0.051925	1.006026	59.412043	41.099850	0.000018	-81.737352	-81.737352	-81.737352	0.005369	0.021889	2.830000	0.024192	0.068857	82.868576
4179.439206	1.007718	0.048468	1.008883	59.178566	41.686204	0.000017	-81.851057	-81.851057	-81.851057	0.005279	0.021340	2.830000	0.023516	0.067888	82.969479
4239.642065	1.009288	0.044046	1.010249	58.938860	42.281082	0.000016	-81.964705	-81.964705	-81.964705	0.005210	0.020775	2.830000	0.022858	0.066933	83.068968
4300.712118	1.009110	0.039357	1.009877	58.691618	42.884609	0.000016	-82.078558	-82.078558	-82.078558	0.005147	0.020190	2.830000	0.022219	0.065991	83.167064
4362.661857	1.007219	0.035169	1.007833	58.436874	43.496908	0.000015	-82.192539	-82.192539	-82.192539	0.005072	0.019587	2.830000	0.021598	0.065062	83.263785
4425.503952	1.003983	0.032177	1.004499	58.176074	44.118106	0.000014	-82.306246	-82.306246	-82.306246	0.004975	0.018977	2.830000	0.020993	0.064146	83.359150
4489.251258	1.000048	0.030858	1.000524	57.911898	44.748332	0.000014	-82.419022	-82.419022	-82.419022	0.004848	0.018371	2.830000	0.020406	0.063243	83.453174
4553.916814	0.996217	0.031362	0.996711	57.647811	45.387715	0.000013	-82.530086	-82.530086	-82.530086	0.004689	0.017785	2.830000	0.019835	0.062352	83.545875
4619.513847	0.993297	0.033461	0.993860	57.387380	46.036385	0.000013	-82.638694	-82.638694	-82.638694	0.004506	0.017232	2.830000	0.019280	0.061473	83.637269
4686.055775	0.991916	0.036580	0.992590	57.133490	46.694473	0.000012	-82.744306	-82.744306	-82.744306	0.004311	0.016722	2.830000	0.018740	0.060607	83.727373
4753.556208	0.992380	0.039901	0.993181	56.887621	47.362113	0.000012	-82.846712	-82.846712	-82.846712	0.004120	0.016256	2.830000	0.018215	0.059752	83.816204
4822.028953	0.994579	0.042542	0.995488	56.649411	48.039439	0.000011	-82.946090	-82.946090	-82.946090	0.003948	0.015832	2.830000	0.017705	0.058910	83.903780
4891.488015	0.997992	0.043756	0.998951	56.416644	48.726590	0.000011	-83.042985	-83.042985	-83.042985	0.003808	0.015439	2.830000	0.017209	0.058079	83.990120
4961.947603	1.001793	0.043126	1.002721	56.185730	49.423704	0.000010	-83.138187	-83.138187	-83.138187	0.003705	0.015061	2.830000	0.016727	0.057260	84.075242
5033.422128	1.005035	0.040683	1.005858	55.952550	50.130925	0.000010	-83.232556	-83.232556	-83.232556	0.003635	0.014685	2.830000	0.016258	0.056452	84.159165
5105.926210	1.006888	0.036926	1.007565	55.713483	50.848398	0.000009	-83.326807	-83.326807	-83.326807	0.003589	0.014300	2.830000	0.015802	0.055656	84.241908
5179.474679	1.006869	0.032713	1.007401	55.466356	51.576271	0.000009	-83.421332	-83.421332	-83.421332	0.003551	0.013898	2.830000	0.015359	0.054870	84.323487
5254.082580	1.004986	0.029051	1.005406	55.211078	52.314695	0.000009	-83.516086	-83.516086	-83.516086	0.003502	0.013483	2.830000	0.014929	0.054096	84.403918
5329.765172	1.001768	0.026823	1.002127	54.949784	53.063821	0.000008	-83.610599	-83.610599	-83.610599	0.003431	0.013062	2.830000	0.014510	0.053332	84.483216
5406.537936	0.998137	0.026525	0.998489	54.686387	53.823804	0.000008	-83.704099	-83.704099	-83.704099	0.003330	0.012648	2.830000	0.014103	0.052579	84.561396
5484.416576	0.995163	0.028101	0.995560	54.425552	54.594799	0.000008	-83.795732	-83.795732	-83.795732	0.003203	0.012255	2.830000	0.013707	0.051836	84.638472
5563.417021	0.993746	0.030928	0.994227	54.171314	55.376962	0.000007	-83.884826	-83.884826	-83.884826	0.003061	0.011891	2.830000	0.013323	0.051104	84.714458
5643.555431	0.994322	0.033981	0.994902	53.925742	56.170453	0.000007	-83.971099	-83.971099	-83.971099	0.002922	0.011562	2.830000	0.012949	0.050382	84.789369
5724.848197	0.996701	0.036136	0.997356	53.688130	56.975433	0.000007	-84.054768	-84.054768	-84.054768	0.002801	0.011263	2.830000	0.012586	0.049671	84.863220
5807.311946	1.000098	0.036540	1.000766	53.455097	57.792064	0.000006	-84.136494	-84.136494	-84.136494	0.002711	0.010982	2.830000	0.012232	0.048969	84.936027
5890.963548	1.003360	0.034910	1.003967	53.221644	58.620514	0.000006	-84.217181	-84.217181	-84.217181	0.002653	0.010708	2.830000	0.011889	0.048277	85.007805
5975.820111	1.005353	0.031668	1.005852	52.982824	59.460953	0.000006	-84.297677	-84.297677	-84.297677	0.002620	0.010428	2.830000	0.011555	0.047594	85.078571
6061.898993	1.005368	0.027824	1.005753	52.735491	60.313554	0.000006	-84.378481	-84.378481	-84.378481	0.002595	0.010135	2.830000	0.011231	0.046921	85.148339
6149.217802	1.003404	0.024638	1.003707	52.479508	61.178492	0.000005	-84.459559	-84.459559	-84.459559	0.002561	0.009831	2.830000	0.010915	0.046258	85.217124
6237.794396	1.000211	0.023153	1.000479	52.217963	62.055946	0.000005	-84.540352	-84.540352	-84.540352	0.002502	0.009524	2.830000	0.010609	0.045604	85.284937
6327.646895	0.997031	0.023783	0.997315	51.956193	62.946095	0.000005	-84.619980	-84.619980	-84.619980	0.002417	0.009226	2.830000	0.010311	0.044959	85.351792
6418.793677	0.995136	0.026108	0.995478	51.699797	63.849121	0.000005	-84.697589	-84.697589	-84.697589	0.002312	0.008949	2.830000	0.010021	0.044323	85.417700
6511.253386	0.995299	0.029003	0.995722	51.452308	64.765207	0.000005	-84.772700	-84.772700	-84.772700	0.002203	0.008697	2.830000	0.009740	0.043696	85.482676
6605.044933	0.997446	0.031079	0.997930	51.213535	65.694540	0.000004	-84.845428	-84.845428	-84.845428	0.002109	0.008470	2.830000	0.009466	0.043078	85.546730
6700.187504	1.000637	0.031269	1.001126	50.979458	66.637309	0.000004	-84.916448	-84.916448	-84.916448	0.002043	0.008258	2.830000	0.009200	0.042469	85.609879
6796.700558	1.003447	0.029324	1.003875	50.743880	67.593707	0.000004	-84.986722	-84.986722	-84.986722	0.002006	0.008048	2.830000	0.008941	0.041868	85.672134
6894.603838	1.004588	0.025971	1.004924	50.501179	68.563929	0.000004	-85.057078	-85.057078	-85.057078	0.001988	0.007830	2.830000	0.008690	0.041275	85.733510
6993.917368	1.003529	0.022619	1.003784	50.248941	69.548176	0.000004	-85.127828	-85.127828	-85.127828	0.001968	0.007602	2.830000	0.008446	0.040691	85.794019
7094.661463	1.000790	0.020715	1.001005	49.989262	70.546649	0.000003	-85.198614	-85.198614	-85.198614	0.001931	0.007368	2.830000	0.008208	0.040115	85.853674
7196.856730	0.997742	0.021020	0.997964	49.727981	71.559554	0.000003	-85.268579	-85.268579	-85.268579	0.001868	0.007139	2.830000	0.007978	0.039547	85.912484
7300.524071	0.995945	0.023188	0.996214	49.471934	72.587098	0.000003	-85.336789	-85.336789	-85.336789	0.001785	0.006925	2.830000	0.007753	0.038988	85.970462
7405.684692	0.996337	0.025888	0.996673	49.225375	73.629489	0.000003	-85.402726	-85.402726	-85.402726	0.001700	0.006732	2.830000	0.007535	0.038436	86.027617
7512.360102	0.998699	0.027471	0.999077	48.987478	74.686940	0.000003	-85.466577	-85.466577	-85.466577	0.001630	0.006557	2.830000	0.007323	0.037891	86.083963
7620.572122	1.001710	0.026876	1.002071	48.752558	75.759666	0.000003	-85.529156	-85.529156	-85.529156	0.001588	0.006392	2.830000	0.007117	0.037355	86.139511
7730.342884	1.003651	0.024258	1.003944	48.513130	76.847888	0.000003	-85.591468	-85.591468	-85.591468	0.001569	0.006224	2.830000	0.006917	0.036826	86.194273
7841.694843	1.003389	0.020968	1.003608	48.264204	77.951827	0.000003	-85.654141	-85.654141	-85.654141	0.001557	0.006047	2.830000	0.006723	0.036304	86.248261
7954.650775	1.001092	0.018792	1.001269	48.006349	79.071712	0.000002	-85.717051	-85.717051	-85.717051	0.001533	0.005864	2.830000	0.006534	0.035790	86.301485
8069.233784	0.998191	0.018872	0.998369	47.745642	80.207772	0.000002	-85.779393	-85.779393	-85.779393	0.001485	0.005682	2.830000	0.006350	0.035283	86.353956
8185.467307	0.996532	0.020944	0.996752	47.490145	81.360239	0.000002	-85.840175	-85.840175	-85.840175	0.001418	0.005512	2.830000	0.006171	0.034784	86.405684
8303.375120	0.997192	0.023441	0.997467	47.244706	82.529348	0.000002	-85.898862	-85.898862	-85.898862	0.001349	0.005360	2.830000	0.005998	0.034291	86.456678
8422.981339	0.999716	0.024480	1.000016	47.007480	83.715338	0.000002	-85.955746	-85.955746	-85.955746	0.001298	0.005222	2.830000	0.005829	0.033805	86.506949
8544.310429	1.002355	0.023143	1.002623	46.770905	84.918449	0.000002	-86.011772	-86.011772	-86.011772	0.001272	0.005089	2.830000	0.005665	0.033326	86.556508
8667.387209	1.003243	0.020178	1.003445	46.526836	86.138930	0.000002	-86.067901	-86.067901	-86.067901	0.001263	0.004950	2.830000	0.005505	0.032854	86.605365
8792.236851	1.001743	0.017534	1.001896	46.272390	87.377029	0.000002	-86.124432	-86.124432	-86.124432	0.001250	0.004803	2.830000	0.005350	0.032388	86.653531
8918.884894	0.998990	0.016964	0.999134	46.012321	88.633003	0.000002	-86.180776	-86.180776	-86.180776	0.001217	0.004655	2.830000	0.005200	0.031929	86.701016
9047.357242	0.997100	0.018673	0.997275	45.755807	89.907106	0.000002	-86.235895	-86.235895	-86.235895	0.001164	0.004515	2.830000	0.005054	0.031477	86.747827
9177.680175	0.997556	0.021079	0.997779	45.509443	91.199600	0.000002	-86.289103	-86.289103	-86.289103	0.001106	0.004390	2.830000	0.004911	0.031031	86.793974
9309.880348	0.999973	0.022007	1.000216	45.271707	92.510748	0.000002	-86.340631	-86.340631	-86.340631	0.001064	0.004276	2.830000	0.004773	0.030591	86.839467
9443.984802	1.002334	0.020471	1.002543	45.033867	93.840817	0.000001	-86.391462	-86.391462	-86.391462	0.001046	0.004166	2.830000	0.004639	0.030157	86.884315
9580.020968	1.002627	0.017564	1.002781	44.787145	95.190080	0.000001	-86.442527	-86.442527	-86.442527	0.001040	0.004050	2.830000	0.004508	0.029730	86.928529
9718.016671	1.000612	0.015604	1.000734	44.530337	96.558814	0.000001	-86.493914	-86.493914	-86.493914	0.001026	0.003928	2.830000	0.004381	0.029309	86.972116
9858.000137	0.998114	0.016107	0.998244	44.271236	97.947300	0.000001	-86.544784	-86.544784	-86.544784	0.000990	0.003807	2.830000	0.004258	0.028893	87.015085
10000.000000	0.997438	0.018352	0.997607	44.019926	99.355821	0.000001	-86.594125	-86.594125	-86.594125	0.000940	0.003697	2.830000	0.004138	0.028483	87.057446
10144.045304	0.999209	0.019960	0.999408	43.779303	100.784664	0.000001	-86.641704	-86.641704	-86.641704	0.000898	0.003599	2.830000	0.004021	0.028080	87.099205
10290.165513	1.001689	0.019131	1.001872	43.541893	102.234122	0.000001	-86.688309	-86.688309	-86.688309	0.000878	0.003507	2.830000	0.003908	0.027682	87.140372
10438.390514	1.002402	0.016463	1.002537	43.296918	103.704490	0.000001	-86.735003	-86.735003	-86.735003	0.000873	0.003410	2.830000	0.003798	0.027289	87.180956
10588.750628	1.000634	0.014447	1.000739	43.041139	105.196070	0.000001	-86.782068	-86.782068	-86.782068	0.000863	0.003309	2.830000	0.003691	0.026902	87.220965
10741.276608	0.998262	0.014939	0.998373	42.782549	106.709169	0.000001	-86.828709	-86.828709	-86.828709	0.000833	0.003208	2.830000	0.003587	0.026521	87.260406
10895.999653	0.997841	0.017129	0.997988	42.532333	108.244095	0.000001	-86.873896	-86.873896	-86.873896	0.000790	0.003116	2.830000	0.003486	0.026145	87.299289
11052.951411	0.999819	0.018326	0.999987	42.292603	109.801161	0.000001	-86.917487	-86.917487	-86.917487	0.000757	0.003034	2.830000	0.003388	0.025774	87.337619
11212.163986	1.001933	0.016922	1.002076	42.053595	111.380686	0.000001	-86.960410	-86.960410	-86.960410	0.000744	0.002955	2.830000	0.003293	0.025408	87.375406
11373.669943	1.001727	0.014308	1.001830	41.804588	112.982992	0.000001	-87.003626	-87.003626	-87.003626	0.000742	0.002871	2.830000	0.003200	0.025048	87.412658
11537.502317	0.999471	0.013341	0.999560	41.546575	114.608409	0.000001	-87.047011	-87.047011	-87.047011	0.000726	0.002784	2.830000	0.003110	0.024693	87.449382
11703.694619	0.997940	0.014913	0.998052	41.291551	116.257269	0.000001	-87.089503	-87.089503	-87.089503	0.000692	0.002701	2.830000	0.003022	0.024343	87.485585
11872.280844	0.999044	0.016755	0.999185	41.047965	117.929910	0.000001	-87.130413	-87.130413	-87.130413	0.000658	0.002628	2.830000	0.002937	0.023997	87.521274
12043.295474	1.001336	0.016222	1.001467	40.809657	119.626671	0.000001	-87.170312	-87.170312	-87.170312	0.000642	0.002559	2.830000	0.002854	0.023657	87.556457
12216.773490	1.001786	0.013764	1.001881	40.563450	121.347901	0.000001	-87.210311	-87.210311	-87.210311	0.000640	0.002489	2.830000	0.002774	0.023321	87.591141
12392.750375	0.999810	0.012437	0.999887	40.306648	123.093952	0.000001	-87.250606	-87.250606	-87.250606	0.000629	0.002414	2.830000	0.002696	0.022991	87.625333
12571.262124	0.998169	0.013775	0.998264	40.051142	124.865182	0.000001	-87.290208	-87.290208	-87.290208	0.000601	0.002342	2.830000	0.002620	0.022664	87.659041
12752.345251	0.999184	0.015561	0.999305	39.807155	126.661952	0.000001	-87.328330	-87.328330	-87.328330	0.000571	0.002278	2.830000	0.002546	0.022343	87.692270
12936.036796	1.001346	0.014906	1.001457	39.568269	128.484630	0.000001	-87.365522	-87.365522	-87.365522	0.000558	0.002219	2.830000	0.002474	0.022026	87.725027
13122.374331	1.001425	0.012522	1.001503	39.320420	130.333588	0.000001	-87.402888	-87.402888	-87.402888	0.000556	0.002156	2.830000	0.002405	0.021714	87.757320
13311.395971	0.999330	0.011768	0.999399	39.063043	132.209206	0.000001	-87.440443	-87.440443	-87.440443	0.000544	0.002091	2.830000	0.002337	0.021405	87.789156
13503.140379	0.998360	0.013497	0.998451	38.810421	134.111866	0.000001	-87.477096	-87.477096	-87.477096	0.000517	0.002030	2.830000	0.002271	0.021102	87.820539
13697.646775	1.000049	0.014606	1.000156	38.569383	136.041959	0.000000	-87.512373	-87.512373	-87.512373	0.000494	0.001976	2.830000	0.002207	0.020802	87.851477
13894.954944	1.001592	0.012985	1.001676	38.327831	137.999877	0.000000	-87.547198	-87.547198	-87.547198	0.000489	0.001923	2.830000	0.002145	0.020507	87.881977
14095.105244	1.000407	0.011084	1.000469	38.074449	139.986023	0.000000	-87.582382	-87.582382	-87.582382	0.000486	0.001867	2.830000	0.002084	0.020216	87.912043
14298.138616	0.998571	0.011855	0.998641	37.818097	142.000802	0.000000	-87.617267	-87.617267	-87.617267	0.000466	0.001811	2.830000	0.002026	0.019929	87.941684
14504.096588	0.999316	0.013586	0.999408	37.572919	144.044627	0.000000	-87.650871	-87.650871	-87.650871	0.000442	0.001761	2.830000	0.001969	0.019647	87.970903
14713.021288	1.001260	0.012836	1.001342	37.333052	146.117915	0.000000	-87.683640	-87.683640	-87.683640	0.000433	0.001715	2.830000	0.001913	0.019368	87.999708
14924.955451	1.000810	0.010708	1.000867	37.082852	148.221090	0.000000	-87.716653	-87.716653	-87.716653	0.000432	0.001666	2.830000	0.001859	0.019093	88.028104
15139.942425	0.998856	0.010905	0.998916	36.826012	150.354584	0.000000	-87.749634	-87.749634	-87.749634	0.000417	0.001616	2.830000	0.001807	0.018822	88.056098
15358.026185	0.999183	0.012678	0.999263	36.579003	152.518831	0.000000	-87.781492	-87.781492	-87.781492	0.000395	0.001571	2.830000	0.001756	0.018555	88.083694
15579.251340	1.001102	0.012184	1.001176	36.339005	154.714276	0.000000	-87.812447	-87.812447	-87.812447	0.000386	0.001529	2.830000	0.001706	0.018292	88.110899
15803.663140	1.000725	0.010132	1.000777	36.089104	156.941366	0.000000	-87.843605	-87.843605	-87.843605	0.000385	0.001486	2.830000	0.001658	0.018032	88.137718
16031.307485	0.998875	0.010437	0.998930	35.832698	159.200557	0.000000	-87.874725	-87.874725	-87.874725	0.000372	0.001441	2.830000	0.001612	0.017776	88.164156
16262.230941	0.999467	0.012072	0.999539	35.586840	161.492313	0.000000	-87.904740	-87.904740	-87.904740	0.000352	0.001401	2.830000	0.001566	0.017524	88.190219
16496.480741	1.001175	0.011164	1.001238	35.345934	163.817100	0.000000	-87.934032	-87.934032	-87.934032	0.000346	0.001364	2.830000	0.001522	0.017275	88.215912
16734.104799	1.000233	0.009422	1.000277	35.093548	166.175396	0.000000	-87.963608	-87.963608	-87.963608	0.000344	0.001324	2.830000	0.001479	0.017030	88.241240
16975.151720	0.998812	0.010420	0.998866	34.838968	168.567681	0.000000	-87.992887	-87.992887	-87.992887	0.000329	0.001285	2.830000	0.001437	0.016789	88.266209
17219.670809	1.000170	0.011465	1.000235	34.596457	170.994447	0.000000	-88.021038	-88.021038	-88.021038	0.000313	0.001251	2.830000	0.001397	0.016550	88.290824
17467.712080	1.001068	0.009773	1.001116	34.352050	173.456187	0.000000	-88.048907	-88.048907	-88.048907	0.000312	0.001217	2.830000	0.001358	0.016315	88.315090
17719.326270	0.999383	0.009095	0.999424	34.096384	175.953408	0.000000	-88.077024	-88.077024	-88.077024	0.000306	0.001180	2.830000	0.001319	0.016084	88.339011
17974.564843	0.999277	0.010698	0.999334	33.847486	178.486619	0.000000	-88.104353	-88.104353	-88.104353	0.000289	0.001147	2.830000	0.001282	0.015856	88.362592
18233.480009	1.000966	0.010195	1.001018	33.606464	181.056338	0.000000	-88.130861	-88.130861	-88.130861	0.000283	0.001116	2.830000	0.001246	0.015630	88.385839
18496.124725	1.000133	0.008566	1.000170	33.354526	183.663091	0.000000	-88.157594	-88.157594	-88.157594	0.000282	0.001084	2.830000	0.001211	0.015409	88.408756
18762.552716	0.999000	0.009681	0.999047	33.101182	186.307411	0.000000	-88.184017	-88.184017	-88.184017	0.000268	0.001052	2.830000	0.001177	0.015190	88.431348
19032.818477	1.000547	0.010170	1.000599	32.859503	188.989840	0.000000	-88.209445	-88.209445	-88.209445	0.000257	0.001024	2.830000	0.001144	0.014974	88.453619
19306.977289	1.000551	0.008389	1.000587	32.611197	191.710925	0.000000	-88.234864	-88.234864	-88.234864	0.000258	0.000995	2.830000	0.001111	0.014762	88.475574
19585.085230	0.999055	0.008902	0.999095	32.356294	194.471223	0.000000	-88.260260	-88.260260	-88.260260	0.000247	0.000966	2.830000	0.001080	0.014552	88.497217
19867.199185	1.000257	0.009843	1.000305	32.113092	197.271300	0.000000	-88.284697	-88.284697	-88.284697	0.000236	0.000940	2.830000	0.001050	0.014346	88.518554
20000.000000	1.000876	0.009192	1.000918	32.000093	198.589399	0.000000	-88.295949	-88.295949	-88.295949	0.000235	0.000928	2.830000	0.001036	0.014251	88.528389
