Freq (hertz)	Ra (norm)	Xa (norm)	Za (norm)	SPL (dB)	Ze (ohms)	Xd (mm) 	WPhase (deg)	UPhase (deg)	CPhase (deg)	Delay (msec)	Efficiency (%)	Ein (volts)	Pin (watts)	Iin (amps)	ZePhase (deg)

10.000000	0.000664	0.030915	0.030922	75.493172	5.731805	1.778995	152.634069	152.634069	152.634069	6.978008	0.016806	2.830000	1.278044	0.493736	23.841152
10.144045	0.000683	0.031360	0.031367	75.721988	5.750339	1.774984	152.272834	152.272834	152.272834	6.954068	0.017815	2.830000	1.270903	0.492145	24.146784
10.290166	0.000703	0.031811	0.031819	75.950314	5.769425	1.770883	151.907669	151.907669	151.907669	6.929636	0.018885	2.830000	1.263623	0.490517	24.455326
10.438391	0.000723	0.032269	0.032277	76.178140	5.789080	1.766690	151.538560	151.538560	151.538560	6.904708	0.020019	2.830000	1.256201	0.488851	24.766763
10.588751	0.000744	0.032734	0.032742	76.405454	5.809321	1.762403	151.165498	151.165498	151.165498	6.879279	0.021223	2.830000	1.248637	0.487148	25.081081
10.741277	0.000766	0.033205	0.033213	76.632248	5.830167	1.758021	150.788472	150.788472	150.788472	6.853344	0.022499	2.830000	1.240930	0.485406	25.398262
10.896000	0.000788	0.033683	0.033692	76.858510	5.851636	1.753543	150.407474	150.407474	150.407474	6.826898	0.023854	2.830000	1.233078	0.483625	25.718287
11.052951	0.000811	0.034167	0.034177	77.084229	5.873749	1.748967	150.022497	150.022497	150.022497	6.799939	0.025290	2.830000	1.225083	0.481805	26.041134
11.212164	0.000834	0.034659	0.034669	77.309395	5.896525	1.744293	149.633535	149.633535	149.633535	6.772461	0.026814	2.830000	1.216942	0.479944	26.366779
11.373670	0.000858	0.035158	0.035168	77.533997	5.919984	1.739518	149.240582	149.240582	149.240582	6.744460	0.028431	2.830000	1.208656	0.478042	26.695196
11.537502	0.000883	0.035664	0.035675	77.758024	5.944149	1.734641	148.843636	148.843636	148.843636	6.715935	0.030146	2.830000	1.200224	0.476098	27.026356
11.703695	0.000909	0.036177	0.036188	77.981465	5.969042	1.729662	148.442695	148.442695	148.442695	6.686882	0.031966	2.830000	1.191645	0.474113	27.360227
11.872281	0.000935	0.036698	0.036710	78.204308	5.994685	1.724578	148.037758	148.037758	148.037758	6.657297	0.033898	2.830000	1.182921	0.472085	27.696776
12.043295	0.000962	0.037226	0.037238	78.426543	6.021103	1.719389	147.628826	147.628826	147.628826	6.627180	0.035947	2.830000	1.174050	0.470014	28.035966
12.216773	0.000990	0.037761	0.037774	78.648157	6.048321	1.714094	147.215901	147.215901	147.215901	6.596526	0.038122	2.830000	1.165033	0.467898	28.377756
12.392750	0.001019	0.038305	0.038318	78.869140	6.076364	1.708691	146.798988	146.798988	146.798988	6.565336	0.040430	2.830000	1.155871	0.465739	28.722104
12.571262	0.001049	0.038856	0.038870	79.089481	6.105258	1.703179	146.378090	146.378090	146.378090	6.533608	0.042879	2.830000	1.146563	0.463535	29.068965
12.752345	0.001079	0.039415	0.039430	79.309167	6.135031	1.697557	145.953216	145.953216	145.953216	6.501340	0.045479	2.830000	1.137111	0.461285	29.418290
12.936037	0.001110	0.039982	0.039997	79.528187	6.165712	1.691825	145.524373	145.524373	145.524373	6.468533	0.048238	2.830000	1.127514	0.458990	29.770026
13.122374	0.001142	0.040557	0.040573	79.746530	6.197330	1.685980	145.091572	145.091572	145.091572	6.435186	0.051167	2.830000	1.117775	0.456648	30.124118
13.311396	0.001176	0.041141	0.041157	79.964183	6.229916	1.680023	144.654824	144.654824	144.654824	6.401300	0.054277	2.830000	1.107894	0.454260	30.480507
13.503140	0.001210	0.041733	0.041750	80.181136	6.263502	1.673952	144.214143	144.214143	144.214143	6.366875	0.057578	2.830000	1.097872	0.451824	30.839131
13.697647	0.001245	0.042333	0.042351	80.397377	6.298121	1.667766	143.769544	143.769544	143.769544	6.331913	0.061083	2.830000	1.087711	0.449340	31.199923
13.894955	0.001281	0.042942	0.042961	80.612894	6.333806	1.661465	143.321042	143.321042	143.321042	6.296415	0.064804	2.830000	1.077412	0.446809	31.562813
14.095105	0.001318	0.043560	0.043579	80.827674	6.370595	1.655048	142.868658	142.868658	142.868658	6.260384	0.068755	2.830000	1.066977	0.444229	31.927726
14.298139	0.001356	0.044186	0.044207	81.041708	6.408523	1.648514	142.412410	142.412410	142.412410	6.223822	0.072951	2.830000	1.056409	0.441599	32.294585
14.504097	0.001396	0.044822	0.044843	81.254982	6.447630	1.641863	141.952320	141.952320	141.952320	6.186732	0.077407	2.830000	1.045709	0.438921	32.663307
14.713021	0.001436	0.045466	0.045489	81.467486	6.487955	1.635094	141.488413	141.488413	141.488413	6.149119	0.082140	2.830000	1.034880	0.436193	33.033805
14.924955	0.001478	0.046120	0.046144	81.679207	6.529540	1.628206	141.020713	141.020713	141.020713	6.110986	0.087166	2.830000	1.023924	0.433415	33.405987
15.139942	0.001521	0.046783	0.046808	81.890135	6.572429	1.621200	140.549247	140.549247	140.549247	6.072338	0.092505	2.830000	1.012844	0.430587	33.779757
15.358026	0.001565	0.047456	0.047482	82.100257	6.616666	1.614074	140.074045	140.074045	140.074045	6.033181	0.098176	2.830000	1.001643	0.427708	34.155015
15.579251	0.001610	0.048139	0.048166	82.309562	6.662298	1.606829	139.595136	139.595136	139.595136	5.993519	0.104201	2.830000	0.990324	0.424778	34.531652
15.803663	0.001657	0.048831	0.048859	82.518039	6.709375	1.599464	139.112553	139.112553	139.112553	5.953360	0.110602	2.830000	0.978891	0.421798	34.909559
16.031307	0.001705	0.049533	0.049562	82.725677	6.757948	1.591980	138.626330	138.626330	138.626330	5.912711	0.117403	2.830000	0.967347	0.418766	35.288618
16.262231	0.001754	0.050245	0.050276	82.932464	6.808069	1.584375	138.136502	138.136502	138.136502	5.871578	0.124629	2.830000	0.955696	0.415683	35.668706
16.496481	0.001805	0.050967	0.050999	83.138389	6.859794	1.576651	137.643108	137.643108	137.643108	5.829970	0.132309	2.830000	0.943942	0.412549	36.049695
16.734105	0.001857	0.051700	0.051734	83.343441	6.913182	1.568808	137.146186	137.146186	137.146186	5.787895	0.140469	2.830000	0.932089	0.409363	36.431451
16.975152	0.001911	0.052443	0.052478	83.547609	6.968292	1.560845	136.645778	136.645778	136.645778	5.745362	0.149142	2.830000	0.920142	0.406125	36.813831
17.219671	0.001967	0.053197	0.053234	83.750883	7.025188	1.552762	136.141925	136.141925	136.141925	5.702380	0.158360	2.830000	0.908105	0.402836	37.196688
17.467712	0.002024	0.053962	0.054000	83.953252	7.083936	1.544561	135.634672	135.634672	135.634672	5.658961	0.168159	2.830000	0.895983	0.399495	37.579868
17.719326	0.002082	0.054737	0.054777	84.154705	7.144605	1.536242	135.124065	135.124065	135.124065	5.615113	0.178575	2.830000	0.883781	0.396103	37.963208
17.974565	0.002143	0.055524	0.055565	84.355232	7.207268	1.527806	134.610151	134.610151	134.610151	5.570850	0.189648	2.830000	0.871504	0.392659	38.346540
18.233480	0.002205	0.056322	0.056365	84.554822	7.271999	1.519252	134.092980	134.092980	134.092980	5.526181	0.201421	2.830000	0.859158	0.389164	38.729685
18.496125	0.002269	0.057131	0.057176	84.753466	7.338879	1.510582	133.572601	133.572601	133.572601	5.481119	0.213938	2.830000	0.846748	0.385617	39.112459
18.762553	0.002335	0.057952	0.057999	84.951154	7.407991	1.501796	133.049066	133.049066	133.049066	5.435676	0.227247	2.830000	0.834280	0.382020	39.494666
19.032818	0.002402	0.058785	0.058834	85.147876	7.479421	1.492896	132.522430	132.522430	132.522430	5.389867	0.241400	2.830000	0.821760	0.378372	39.876104
19.306977	0.002472	0.059630	0.059681	85.343623	7.553261	1.483883	131.992747	131.992747	131.992747	5.343703	0.256450	2.830000	0.809195	0.374673	40.256560
19.585085	0.002544	0.060486	0.060540	85.538384	7.629608	1.474758	131.460073	131.460073	131.460073	5.297200	0.272457	2.830000	0.796590	0.370923	40.635810
19.867199	0.002617	0.061355	0.061411	85.732152	7.708561	1.465521	130.924466	130.924466	130.924466	5.250370	0.289481	2.830000	0.783952	0.367124	41.013621
20.153377	0.002693	0.062236	0.062295	85.924918	7.790228	1.456174	130.385984	130.385984	130.385984	5.203230	0.307588	2.830000	0.771288	0.363276	41.389748
20.443677	0.002771	0.063130	0.063191	86.116672	7.874719	1.446720	129.844688	129.844688	129.844688	5.155794	0.326848	2.830000	0.758605	0.359378	41.763935
20.738158	0.002852	0.064037	0.064100	86.307406	7.962151	1.437158	129.300638	129.300638	129.300638	5.108078	0.347335	2.830000	0.745909	0.355432	42.135912
21.036882	0.002934	0.064956	0.065023	86.497112	8.052649	1.427491	128.753898	128.753898	128.753898	5.060096	0.369129	2.830000	0.733208	0.351437	42.505398
21.339908	0.003019	0.065889	0.065958	86.685782	8.146343	1.417721	128.204531	128.204531	128.204531	5.011866	0.392313	2.830000	0.720509	0.347395	42.872095
21.647300	0.003107	0.066835	0.066907	86.873408	8.243369	1.407849	127.652600	127.652600	127.652600	4.963404	0.416977	2.830000	0.707820	0.343306	43.235693
21.959119	0.003197	0.067794	0.067870	87.059983	8.343873	1.397877	127.098171	127.098171	127.098171	4.914726	0.443217	2.830000	0.695147	0.339171	43.595864
22.275430	0.003290	0.068768	0.068846	87.245499	8.448007	1.387807	126.541310	126.541310	126.541310	4.865850	0.471132	2.830000	0.682499	0.334990	43.952264
22.596297	0.003385	0.069755	0.069837	87.429949	8.555933	1.377642	125.982085	125.982085	125.982085	4.816791	0.500830	2.830000	0.669882	0.330765	44.304531
22.921786	0.003483	0.070756	0.070841	87.613327	8.667822	1.367382	125.420563	125.420563	125.420563	4.767568	0.532426	2.830000	0.657306	0.326495	44.652284
23.251963	0.003584	0.071771	0.071860	87.795627	8.783854	1.357031	124.856812	124.856812	124.856812	4.718197	0.566040	2.830000	0.644777	0.322182	44.995119
23.586897	0.003688	0.072801	0.072894	87.976840	8.904220	1.346591	124.290901	124.290901	124.290901	4.668697	0.601800	2.830000	0.632304	0.317827	45.332613
23.926655	0.003795	0.073845	0.073943	88.156963	9.029123	1.336064	123.722901	123.722901	123.722901	4.619084	0.639842	2.830000	0.619895	0.313430	45.664317
24.271307	0.003905	0.074904	0.075006	88.335989	9.158778	1.325452	123.152880	123.152880	123.152880	4.569376	0.680309	2.830000	0.607557	0.308993	45.989758
24.620924	0.004018	0.075979	0.076085	88.513911	9.293412	1.314759	122.580910	122.580910	122.580910	4.519591	0.723353	2.830000	0.595299	0.304517	46.308433
24.975577	0.004134	0.077068	0.077179	88.690726	9.433266	1.303986	122.007061	122.007061	122.007061	4.469746	0.769136	2.830000	0.583128	0.300002	46.619813
25.335338	0.004254	0.078174	0.078289	88.866429	9.578597	1.293137	121.431405	121.431405	121.431405	4.419859	0.817825	2.830000	0.571053	0.295450	46.923333
25.700282	0.004377	0.079294	0.079415	89.041013	9.729679	1.282213	120.854013	120.854013	120.854013	4.369948	0.869601	2.830000	0.559082	0.290863	47.218395
26.070482	0.004504	0.080431	0.080557	89.214475	9.886800	1.271219	120.274956	120.274956	120.274956	4.320029	0.924650	2.830000	0.547223	0.286240	47.504365
26.446016	0.004635	0.081584	0.081716	89.386811	10.050269	1.260155	119.694306	119.694306	119.694306	4.270120	0.983171	2.830000	0.535484	0.281585	47.780566
26.826958	0.004769	0.082753	0.082891	89.558017	10.220414	1.249027	119.112135	119.112135	119.112135	4.220238	1.045372	2.830000	0.523872	0.276897	48.046278
27.213388	0.004907	0.083939	0.084082	89.728088	10.397586	1.237836	118.528514	118.528514	118.528514	4.170400	1.111468	2.830000	0.512397	0.272179	48.300732
27.605384	0.005049	0.085142	0.085291	89.897021	10.582157	1.226585	117.943516	117.943516	117.943516	4.120622	1.181688	2.830000	0.501064	0.267431	48.543108
28.003026	0.005196	0.086361	0.086518	90.064813	10.774526	1.215278	117.357212	117.357212	117.357212	4.070921	1.256268	2.830000	0.489884	0.262657	48.772528
28.406397	0.005346	0.087598	0.087761	90.231460	10.975115	1.203917	116.769672	116.769672	116.769672	4.021313	1.335456	2.830000	0.478863	0.257856	48.988053
28.815578	0.005501	0.088853	0.089023	90.396960	11.184378	1.192505	116.180970	116.180970	116.180970	3.971814	1.419506	2.830000	0.468008	0.253032	49.188676
29.230652	0.005660	0.090125	0.090303	90.561310	11.402799	1.181047	115.591174	115.591174	115.591174	3.922440	1.508682	2.830000	0.457328	0.248185	49.373315
29.651706	0.005824	0.091415	0.091600	90.724508	11.630893	1.169544	115.000357	115.000357	115.000357	3.873205	1.603258	2.830000	0.446829	0.243318	49.540809
30.078825	0.005993	0.092724	0.092917	90.886551	11.869212	1.158000	114.408587	114.408587	114.408587	3.824125	1.703512	2.830000	0.436520	0.238432	49.689906
30.512097	0.006166	0.094050	0.094252	91.047436	12.118345	1.146418	113.815936	113.815936	113.815936	3.775213	1.809729	2.830000	0.426407	0.233530	49.819259
30.951609	0.006345	0.095396	0.095607	91.207163	12.378921	1.134802	113.222473	113.222473	113.222473	3.726484	1.922199	2.830000	0.416498	0.228614	49.927412
31.397452	0.006529	0.096761	0.096981	91.365729	12.651613	1.123154	112.628267	112.628267	112.628267	3.677952	2.041213	2.830000	0.406798	0.223687	50.012794
31.849718	0.006718	0.098145	0.098374	91.523133	12.937137	1.111478	112.033387	112.033387	112.033387	3.629629	2.167066	2.830000	0.397316	0.218750	50.073705
32.308498	0.006912	0.099548	0.099788	91.679374	13.236258	1.099777	111.437900	111.437900	111.437900	3.581529	2.300047	2.830000	0.388056	0.213807	50.108302
32.773887	0.007112	0.100971	0.101221	91.834449	13.549792	1.088054	110.841874	110.841874	110.841874	3.533663	2.440443	2.830000	0.379027	0.208859	50.114589
33.245979	0.007318	0.102414	0.102675	91.988358	13.878607	1.076313	110.245378	110.245378	110.245378	3.486043	2.588532	2.830000	0.370234	0.203911	50.090395
33.724872	0.007530	0.103878	0.104150	92.141100	14.223625	1.064557	109.648476	109.648476	109.648476	3.438681	2.744580	2.830000	0.361683	0.198965	50.033365
34.210663	0.007748	0.105362	0.105646	92.292674	14.585823	1.052788	109.051237	109.051237	109.051237	3.391588	2.908837	2.830000	0.353380	0.194024	49.940934
34.703452	0.007972	0.106866	0.107163	92.443079	14.966236	1.041011	108.453724	108.453724	108.453724	3.344773	3.081532	2.830000	0.345331	0.189092	49.810311
35.203338	0.008203	0.108392	0.108702	92.592314	15.365950	1.029228	107.856003	107.856003	107.856003	3.298246	3.262870	2.830000	0.337541	0.184173	49.638455
35.710426	0.008440	0.109940	0.110263	92.740380	15.786108	1.017442	107.258138	107.258138	107.258138	3.252017	3.453021	2.830000	0.330015	0.179272	49.422049
36.224818	0.008684	0.111509	0.111846	92.887275	16.227898	1.005657	106.660194	106.660194	106.660194	3.206094	3.652122	2.830000	0.322758	0.174391	49.157481
36.746619	0.008935	0.113100	0.113452	93.032998	16.692547	0.993875	106.062234	106.062234	106.062234	3.160486	3.860262	2.830000	0.315775	0.169537	48.840806
37.275937	0.009194	0.114713	0.115081	93.177551	17.181312	0.982101	105.464321	105.464321	105.464321	3.115200	4.077482	2.830000	0.309070	0.164714	48.467728
37.812880	0.009460	0.116349	0.116733	93.320932	17.695459	0.970336	104.866517	104.866517	104.866517	3.070244	4.303763	2.830000	0.302649	0.159928	48.033565
38.357556	0.009733	0.118007	0.118408	93.463142	18.236242	0.958584	104.268884	104.268884	104.268884	3.025623	4.539026	2.830000	0.296514	0.155185	47.533223
38.910079	0.010015	0.119689	0.120107	93.604179	18.804867	0.946848	103.671484	103.671484	103.671484	2.981344	4.783116	2.830000	0.290671	0.150493	46.961166
39.470560	0.010304	0.121394	0.121831	93.744045	19.402451	0.935130	103.074378	103.074378	103.074378	2.937414	5.035805	2.830000	0.285122	0.145858	46.311398
40.039115	0.010602	0.123123	0.123579	93.882738	20.029963	0.923435	102.477626	102.477626	102.477626	2.893836	5.296779	2.830000	0.279870	0.141288	45.577445
40.615860	0.010909	0.124876	0.125352	94.020260	20.688147	0.911764	101.881289	101.881289	101.881289	2.850615	5.565638	2.830000	0.274919	0.136793	44.752346
41.200912	0.011224	0.126653	0.127150	94.156609	21.377426	0.900120	101.285427	101.285427	101.285427	2.807757	5.841890	2.830000	0.270273	0.132383	43.828668
41.794392	0.011549	0.128455	0.128973	94.291787	22.097780	0.888506	100.690100	100.690100	100.690100	2.765264	6.124947	2.830000	0.265932	0.128067	42.798535
42.396421	0.011882	0.130282	0.130823	94.425792	22.848595	0.876926	100.095367	100.095367	100.095367	2.723139	6.414127	2.830000	0.261900	0.123859	41.653690
43.007121	0.012226	0.132134	0.132699	94.558626	23.628478	0.865381	99.501288	99.501288	99.501288	2.681386	6.708652	2.830000	0.258179	0.119771	40.385604
43.626619	0.012579	0.134012	0.134601	94.690288	24.435042	0.853874	98.907921	98.907921	98.907921	2.640007	7.007653	2.830000	0.254771	0.115817	38.985631
44.255040	0.012942	0.135916	0.136531	94.820778	25.264652	0.842408	98.315325	98.315325	98.315325	2.599003	7.310174	2.830000	0.251678	0.112014	37.445237
44.892513	0.013316	0.137846	0.138488	94.950096	26.112158	0.830985	97.723560	97.723560	97.723560	2.558377	7.615180	2.830000	0.248899	0.108379	35.756313
45.539168	0.013701	0.139803	0.140473	95.078242	26.970610	0.819608	97.132684	97.132684	97.132684	2.518130	7.921565	2.830000	0.246438	0.104929	33.911584
46.195138	0.014097	0.141786	0.142485	95.205217	27.831000	0.808279	96.542756	96.542756	96.542756	2.478261	8.228165	2.830000	0.244294	0.101685	31.905126
46.860558	0.014504	0.143797	0.144527	95.331021	28.682060	0.797001	95.953836	95.953836	95.953836	2.438773	8.533772	2.830000	0.242469	0.098668	29.732989
47.535562	0.014922	0.145836	0.146597	95.455652	29.510187	0.785776	95.365982	95.365982	95.365982	2.399664	8.837148	2.830000	0.240961	0.095899	27.393909
48.220290	0.015353	0.147902	0.148697	95.579113	30.299547	0.774606	94.779254	94.779254	94.779254	2.360935	9.137043	2.830000	0.239773	0.093401	24.890080
48.914880	0.015796	0.149996	0.150826	95.701402	31.032433	0.763494	94.193710	94.193710	94.193710	2.322585	9.432212	2.830000	0.238903	0.091195	22.227898
49.619476	0.016252	0.152120	0.152985	95.822519	31.689950	0.752441	93.609412	93.609412	93.609412	2.284614	9.721436	2.830000	0.238350	0.089303	19.418603
50.334221	0.016721	0.154272	0.155175	95.942465	32.253011	0.741450	93.026419	93.026419	93.026419	2.247019	10.003535	2.830000	0.238115	0.087744	16.478689
51.059262	0.017204	0.156453	0.157396	96.061240	32.703632	0.730522	92.444792	92.444792	92.444792	2.209801	10.277389	2.830000	0.238197	0.086535	13.429951
51.794747	0.017700	0.158664	0.159648	96.178843	33.026380	0.719660	91.864591	91.864591	91.864591	2.172957	10.541954	2.830000	0.238593	0.085689	10.299088
52.540826	0.018210	0.160905	0.161933	96.295274	33.209790	0.708866	91.285879	91.285879	91.285879	2.136486	10.796275	2.830000	0.239303	0.085216	7.116792
53.297652	0.018735	0.163177	0.164249	96.410534	33.247510	0.698141	90.708716	90.708716	90.708716	2.100386	11.039500	2.830000	0.240325	0.085119	3.916392
54.065379	0.019275	0.165479	0.166598	96.524623	33.138961	0.687488	90.133166	90.133166	90.133166	2.064654	11.270889	2.830000	0.241657	0.085398	0.732156
54.844166	0.019831	0.167812	0.168980	96.637540	32.889384	0.676907	89.559292	89.559292	89.559292	2.029289	11.489819	2.830000	0.243296	0.086046	-2.402514
55.634170	0.020402	0.170177	0.171395	96.749286	32.509253	0.666402	88.987157	88.987157	88.987157	1.994288	11.695794	2.830000	0.245241	0.087052	-5.456791
56.435554	0.020990	0.172573	0.173845	96.859861	32.013194	0.655972	88.416826	88.416826	88.416826	1.959648	11.888443	2.830000	0.247489	0.088401	-8.403792
57.248482	0.021595	0.175002	0.176329	96.969264	31.418601	0.645621	87.848365	87.848365	87.848365	1.925368	12.067517	2.830000	0.250036	0.090074	-11.221514
58.073119	0.022217	0.177462	0.178848	97.077496	30.744189	0.635350	87.281839	87.281839	87.281839	1.891443	12.232890	2.830000	0.252880	0.092050	-13.893248
58.909635	0.022857	0.179956	0.181402	97.184557	30.008692	0.625159	86.717315	86.717315	86.717315	1.857872	12.384553	2.830000	0.256018	0.094306	-16.407548
59.758201	0.023515	0.182483	0.183992	97.290447	29.229819	0.615051	86.154862	86.154862	86.154862	1.824651	12.522601	2.830000	0.259445	0.096819	-18.757836
60.618990	0.024191	0.185044	0.186619	97.395166	28.423548	0.605026	85.594547	85.594547	85.594547	1.791778	12.647233	2.830000	0.263157	0.099565	-20.941767
61.492178	0.024887	0.187638	0.189282	97.498715	27.603720	0.595087	85.036440	85.036440	85.036440	1.759249	12.758733	2.830000	0.267152	0.102522	-22.960484
62.377944	0.025603	0.190267	0.191982	97.601094	26.781895	0.585234	84.480611	84.480611	84.480611	1.727063	12.857465	2.830000	0.271424	0.105668	-24.817846
63.276469	0.026340	0.192931	0.194720	97.702304	25.967411	0.575469	83.927133	83.927133	83.927133	1.695215	12.943862	2.830000	0.275969	0.108983	-26.519719
64.187937	0.027097	0.195629	0.197497	97.802344	25.167552	0.565793	83.376077	83.376077	83.376077	1.663703	13.018410	2.830000	0.280783	0.112446	-28.073338
65.112534	0.027876	0.198363	0.200312	97.901216	24.387799	0.556207	82.827516	82.827516	82.827516	1.632524	13.081643	2.830000	0.285860	0.116042	-29.486798
66.050449	0.028677	0.201132	0.203166	97.998919	23.632101	0.546712	82.281526	82.281526	82.281526	1.601675	13.134127	2.830000	0.291196	0.119752	-30.768627
67.001875	0.029501	0.203938	0.206061	98.095456	22.903135	0.537308	81.738180	81.738180	81.738180	1.571153	13.176454	2.830000	0.296785	0.123564	-31.927481
67.967006	0.030348	0.206780	0.208995	98.190827	22.202562	0.527998	81.197556	81.197556	81.197556	1.540955	13.209234	2.830000	0.302621	0.127463	-32.971907
68.946038	0.031219	0.209659	0.211971	98.285032	21.531234	0.518782	80.659731	80.659731	80.659731	1.511080	13.233081	2.830000	0.308700	0.131437	-33.910183
69.939174	0.032115	0.212575	0.214987	98.378073	20.889385	0.509660	80.124783	80.124783	80.124783	1.481523	13.248611	2.830000	0.315015	0.135476	-34.750213
70.946615	0.033037	0.215528	0.218046	98.469952	20.276784	0.500634	79.592791	79.592791	79.592791	1.452283	13.256436	2.830000	0.321561	0.139568	-35.499457
71.968567	0.033985	0.218520	0.221146	98.560669	19.692853	0.491704	79.063835	79.063835	79.063835	1.423357	13.257153	2.830000	0.328330	0.143707	-36.164906
73.005241	0.034959	0.221549	0.224290	98.650226	19.136771	0.482872	78.537998	78.537998	78.537998	1.394742	13.251347	2.830000	0.335318	0.147883	-36.753063
74.056847	0.035961	0.224617	0.227478	98.738626	18.607553	0.474137	78.015359	78.015359	78.015359	1.366436	13.239580	2.830000	0.342517	0.152089	-37.269955
75.123601	0.036992	0.227724	0.230709	98.825869	18.104104	0.465500	77.496004	77.496004	77.496004	1.338437	13.222395	2.830000	0.349922	0.156318	-37.721142
76.205721	0.038051	0.230870	0.233985	98.911958	17.625271	0.456963	76.980016	76.980016	76.980016	1.310743	13.200309	2.830000	0.357525	0.160565	-38.111748
77.303429	0.039141	0.234055	0.237306	98.996896	17.169876	0.448524	76.467478	76.467478	76.467478	1.283352	13.173813	2.830000	0.365319	0.164824	-38.446480
78.416948	0.040261	0.237281	0.240672	99.080684	16.736739	0.440186	75.958478	75.958478	75.958478	1.256261	13.143371	2.830000	0.373298	0.169089	-38.729659
79.546508	0.041413	0.240546	0.244085	99.163326	16.324698	0.431948	75.453102	75.453102	75.453102	1.229469	13.109420	2.830000	0.381455	0.173357	-38.965251
80.692338	0.042597	0.243852	0.247545	99.244824	15.932624	0.423811	74.951435	74.951435	74.951435	1.202974	13.072369	2.830000	0.389783	0.177623	-39.156892
81.854673	0.043815	0.247199	0.251052	99.325181	15.559428	0.415776	74.453567	74.453567	74.453567	1.176774	13.032600	2.830000	0.398273	0.181883	-39.307917
83.033751	0.045067	0.250586	0.254607	99.404401	15.204068	0.407841	73.959586	73.959586	73.959586	1.150868	12.990469	2.830000	0.406921	0.186134	-39.421386
84.229813	0.046354	0.254015	0.258210	99.482487	14.865548	0.400008	73.469581	73.469581	73.469581	1.125254	12.946304	2.830000	0.415717	0.190373	-39.500109
85.443104	0.047677	0.257486	0.261863	99.559444	14.542928	0.392277	72.983642	72.983642	72.983642	1.099932	12.900409	2.830000	0.424654	0.194596	-39.546663
86.673872	0.049038	0.260998	0.265565	99.635274	14.235317	0.384649	72.501858	72.501858	72.501858	1.074898	12.853065	2.830000	0.433726	0.198801	-39.563422
87.922369	0.050436	0.264553	0.269318	99.709982	13.941872	0.377122	72.024321	72.024321	72.024321	1.050154	12.804527	2.830000	0.442924	0.202986	-39.552566
89.188849	0.051874	0.268150	0.273121	99.783574	13.661804	0.369698	71.551121	71.551121	71.551121	1.025696	12.755031	2.830000	0.452241	0.207147	-39.516105
90.473572	0.053352	0.271789	0.276976	99.856052	13.394369	0.362376	71.082350	71.082350	71.082350	1.001525	12.704791	2.830000	0.461670	0.211283	-39.455891
91.776802	0.054871	0.275472	0.280884	99.927423	13.138868	0.355157	70.618100	70.618100	70.618100	0.977640	12.654002	2.830000	0.471204	0.215391	-39.373634
93.098803	0.056433	0.279197	0.284843	99.997692	12.894646	0.348039	70.158462	70.158462	70.158462	0.954038	12.602842	2.830000	0.480834	0.219471	-39.270913
94.439848	0.058038	0.282966	0.288856	100.066864	12.661089	0.341024	69.703529	69.703529	69.703529	0.930721	12.551469	2.830000	0.490553	0.223519	-39.149191
95.800210	0.059688	0.286778	0.292923	100.134945	12.437622	0.334111	69.253392	69.253392	69.253392	0.907686	12.500029	2.830000	0.500355	0.227535	-39.009819
97.180167	0.061384	0.290633	0.297045	100.201941	12.223704	0.327301	68.808145	68.808145	68.808145	0.884933	12.448650	2.830000	0.510230	0.231517	-38.854054
98.580001	0.063127	0.294532	0.301221	100.267857	12.018829	0.320591	68.367879	68.367879	68.367879	0.862462	12.397450	2.830000	0.520173	0.235464	-38.683061
100.000000	0.064918	0.298475	0.305454	100.332702	11.822524	0.313984	67.932687	67.932687	67.932687	0.840272	12.346532	2.830000	0.530175	0.239374	-38.497921
101.440453	0.066759	0.302462	0.309742	100.396481	11.634343	0.307477	67.502659	67.502659	67.502659	0.818362	12.295987	2.830000	0.540230	0.243245	-38.299643
102.901655	0.068651	0.306493	0.314088	100.459201	11.453871	0.301072	67.077889	67.077889	67.077889	0.796732	12.245899	2.830000	0.550331	0.247078	-38.089165
104.383905	0.070595	0.310568	0.318491	100.520870	11.280716	0.294767	66.658468	66.658468	66.658468	0.775381	12.196338	2.830000	0.560469	0.250871	-37.867363
105.887506	0.072592	0.314688	0.322952	100.581496	11.114510	0.288562	66.244487	66.244487	66.244487	0.754309	12.147368	2.830000	0.570639	0.254622	-37.635054
107.412766	0.074645	0.318851	0.327472	100.641085	10.954910	0.282458	65.836036	65.836036	65.836036	0.733515	12.099044	2.830000	0.580834	0.258332	-37.393002
108.959997	0.076754	0.323059	0.332051	100.699646	10.801591	0.276452	65.433207	65.433207	65.433207	0.712999	12.051413	2.830000	0.591046	0.261998	-37.141921
110.529514	0.078921	0.327310	0.336691	100.757188	10.654249	0.270545	65.036088	65.036088	65.036088	0.692761	12.004518	2.830000	0.601268	0.265622	-36.882481
112.121640	0.081147	0.331606	0.341390	100.813718	10.512598	0.264737	64.644769	64.644769	64.644769	0.672799	11.958392	2.830000	0.611496	0.269201	-36.615310
113.736699	0.083434	0.335946	0.346152	100.869246	10.376368	0.259026	64.259340	64.259340	64.259340	0.653114	11.913066	2.830000	0.621721	0.272735	-36.340996
115.375023	0.085784	0.340329	0.350974	100.923781	10.245306	0.253413	63.879887	63.879887	63.879887	0.633704	11.868563	2.830000	0.631938	0.276224	-36.060093
117.036946	0.088198	0.344757	0.355860	100.977330	10.119173	0.247896	63.506497	63.506497	63.506497	0.614570	11.824904	2.830000	0.642140	0.279667	-35.773120
118.722808	0.090677	0.349228	0.360808	101.029905	9.997742	0.242475	63.139259	63.139259	63.139259	0.595711	11.782105	2.830000	0.652322	0.283064	-35.480566
120.432955	0.093224	0.353742	0.365820	101.081514	9.880803	0.237149	62.778256	62.778256	62.778256	0.577127	11.740177	2.830000	0.662478	0.286414	-35.182892
122.167735	0.095840	0.358299	0.370896	101.132168	9.768154	0.231917	62.423574	62.423574	62.423574	0.558816	11.699130	2.830000	0.672601	0.289717	-34.880531
123.927504	0.098526	0.362899	0.376036	101.181875	9.659605	0.226780	62.075297	62.075297	62.075297	0.540778	11.658969	2.830000	0.682687	0.292973	-34.573893
125.712621	0.101285	0.367542	0.381242	101.230647	9.554978	0.221735	61.733508	61.733508	61.733508	0.523012	11.619699	2.830000	0.692730	0.296181	-34.263362
127.523453	0.104119	0.372226	0.386514	101.278494	9.454103	0.216783	61.398287	61.398287	61.398287	0.505518	11.581320	2.830000	0.702725	0.299341	-33.949304
129.360368	0.107028	0.376953	0.391853	101.325426	9.356820	0.211922	61.069717	61.069717	61.069717	0.488294	11.543831	2.830000	0.712668	0.302453	-33.632062
131.223743	0.110015	0.381720	0.397258	101.371454	9.262976	0.207152	60.747877	60.747877	60.747877	0.471341	11.507230	2.830000	0.722552	0.305517	-33.311961
133.113960	0.113083	0.386528	0.402731	101.416588	9.172429	0.202471	60.432845	60.432845	60.432845	0.454657	11.471511	2.830000	0.732373	0.308533	-32.989309
135.031404	0.116232	0.391377	0.408271	101.460840	9.085040	0.197879	60.124700	60.124700	60.124700	0.438241	11.436669	2.830000	0.742128	0.311501	-32.664395
136.976468	0.119464	0.396264	0.413881	101.504221	9.000683	0.193375	59.823517	59.823517	59.823517	0.422091	11.402696	2.830000	0.751811	0.314421	-32.337494
138.949549	0.122783	0.401191	0.419559	101.546741	8.919232	0.188958	59.529372	59.529372	59.529372	0.406208	11.369585	2.830000	0.761419	0.317292	-32.008867
140.951052	0.126189	0.406156	0.425307	101.588413	8.840572	0.184627	59.242338	59.242338	59.242338	0.390590	11.337326	2.830000	0.770948	0.320115	-31.678760
142.981386	0.129685	0.411158	0.431125	101.629248	8.764592	0.180382	58.962489	58.962489	58.962489	0.375235	11.305909	2.830000	0.780394	0.322890	-31.347404
145.040966	0.133273	0.416196	0.437014	101.669256	8.691186	0.176220	58.689896	58.689896	58.689896	0.360143	11.275323	2.830000	0.789752	0.325617	-31.015022
147.130213	0.136955	0.421270	0.442973	101.708451	8.620254	0.172142	58.424629	58.424629	58.424629	0.345312	11.245558	2.830000	0.799021	0.328297	-30.681820
149.249555	0.140734	0.426378	0.449004	101.746843	8.551700	0.168145	58.166758	58.166758	58.166758	0.330740	11.216601	2.830000	0.808197	0.330928	-30.347998
151.399424	0.144610	0.431520	0.455107	101.784445	8.485434	0.164230	57.916350	57.916350	57.916350	0.316426	11.188440	2.830000	0.817277	0.333513	-30.013742
153.580262	0.148588	0.436695	0.461281	101.821267	8.421368	0.160395	57.673471	57.673471	57.673471	0.302369	11.161063	2.830000	0.826258	0.336050	-29.679230
155.792513	0.152668	0.441900	0.467529	101.857323	8.359421	0.156639	57.438187	57.438187	57.438187	0.288567	11.134457	2.830000	0.835137	0.338540	-29.344628
158.036631	0.156853	0.447135	0.473849	101.892624	8.299513	0.152961	57.210562	57.210562	57.210562	0.275018	11.108609	2.830000	0.843912	0.340984	-29.010096
160.313075	0.161146	0.452399	0.480242	101.927182	8.241568	0.149360	56.990659	56.990659	56.990659	0.261721	11.083506	2.830000	0.852581	0.343381	-28.675783
162.622309	0.165548	0.457690	0.486709	101.961010	8.185516	0.145835	56.778538	56.778538	56.778538	0.248673	11.059136	2.830000	0.861141	0.345733	-28.341832
164.964807	0.170063	0.463006	0.493250	101.994118	8.131287	0.142385	56.574259	56.574259	56.574259	0.235873	11.035485	2.830000	0.869590	0.348038	-28.008377
167.341048	0.174692	0.468346	0.499865	102.026520	8.078816	0.139008	56.377883	56.377883	56.377883	0.223319	11.012540	2.830000	0.877928	0.350299	-27.675543
169.751517	0.179439	0.473707	0.506554	102.058227	8.028039	0.135704	56.189465	56.189465	56.189465	0.211009	10.990288	2.830000	0.886151	0.352514	-27.343452
172.196708	0.184304	0.479090	0.513318	102.089251	7.978898	0.132472	56.009063	56.009063	56.009063	0.198940	10.968716	2.830000	0.894260	0.354686	-27.012216
174.677121	0.189291	0.484490	0.520156	102.119605	7.931334	0.129310	55.836732	55.836732	55.836732	0.187111	10.947812	2.830000	0.902251	0.356813	-26.681941
177.193263	0.194403	0.489907	0.527068	102.149300	7.885292	0.126218	55.672524	55.672524	55.672524	0.175520	10.927564	2.830000	0.910125	0.358896	-26.352729
179.745648	0.199641	0.495337	0.534056	102.178349	7.840720	0.123194	55.516494	55.516494	55.516494	0.164164	10.907958	2.830000	0.917880	0.360936	-26.024672
182.334800	0.205009	0.500780	0.541118	102.206764	7.797567	0.120237	55.368691	55.368691	55.368691	0.153042	10.888982	2.830000	0.925515	0.362934	-25.697861
184.961247	0.210508	0.506232	0.548255	102.234556	7.755786	0.117346	55.229167	55.229167	55.229167	0.142150	10.870626	2.830000	0.933030	0.364889	-25.372378
187.625527	0.216141	0.511690	0.555467	102.261737	7.715328	0.114520	55.097969	55.097969	55.097969	0.131486	10.852876	2.830000	0.940423	0.366802	-25.048303
190.328185	0.221911	0.517153	0.562754	102.288320	7.676151	0.111758	54.975147	54.975147	54.975147	0.121049	10.835722	2.830000	0.947695	0.368674	-24.725708
193.069773	0.227819	0.522617	0.570115	102.314317	7.638210	0.109059	54.860745	54.860745	54.860745	0.110835	10.819153	2.830000	0.954845	0.370506	-24.404662
195.850852	0.233870	0.528080	0.577550	102.339738	7.601466	0.106421	54.754811	54.754811	54.754811	0.100843	10.803157	2.830000	0.961872	0.372297	-24.085230
198.671992	0.240064	0.533538	0.585059	102.364595	7.565879	0.103845	54.657387	54.657387	54.657387	0.091069	10.787723	2.830000	0.968778	0.374048	-23.767471
201.533769	0.246405	0.538989	0.592642	102.388902	7.531410	0.101327	54.568518	54.568518	54.568518	0.081512	10.772843	2.830000	0.975560	0.375760	-23.451441
204.436768	0.252895	0.544428	0.600298	102.412668	7.498025	0.098869	54.488244	54.488244	54.488244	0.072168	10.758505	2.830000	0.982221	0.377433	-23.137192
207.381584	0.259536	0.549853	0.608028	102.435905	7.465687	0.096467	54.416607	54.416607	54.416607	0.063036	10.744700	2.830000	0.988759	0.379068	-22.824771
210.368818	0.266331	0.555260	0.615829	102.458625	7.434363	0.094122	54.353647	54.353647	54.353647	0.054112	10.731419	2.830000	0.995176	0.380665	-22.514223
213.399082	0.273282	0.560645	0.623703	102.480840	7.404022	0.091833	54.299402	54.299402	54.299402	0.045394	10.718652	2.830000	1.001471	0.382225	-22.205590
216.472995	0.280391	0.566003	0.631648	102.502560	7.374631	0.089598	54.253910	54.253910	54.253910	0.036880	10.706391	2.830000	1.007644	0.383748	-21.898907
219.591187	0.287661	0.571332	0.639663	102.523796	7.346161	0.087416	54.217206	54.217206	54.217206	0.028566	10.694628	2.830000	1.013697	0.385235	-21.594209
222.754295	0.295094	0.576626	0.647748	102.544561	7.318584	0.085286	54.189328	54.189328	54.189328	0.020451	10.683354	2.830000	1.019631	0.386687	-21.291528
225.962966	0.302692	0.581881	0.655902	102.564863	7.291872	0.083207	54.170308	54.170308	54.170308	0.012532	10.672561	2.830000	1.025444	0.388103	-20.990892
229.217857	0.310456	0.587092	0.664124	102.584716	7.265998	0.081179	54.160179	54.160179	54.160179	0.004806	10.662243	2.830000	1.031139	0.389485	-20.692325
232.519632	0.318389	0.592255	0.672412	102.604129	7.240937	0.079199	54.158975	54.158975	54.158975	-0.002730	10.652393	2.830000	1.036717	0.390833	-20.395850
235.868968	0.326494	0.597365	0.680767	102.623112	7.216664	0.077268	54.166725	54.166725	54.166725	-0.010077	10.643003	2.830000	1.042177	0.392148	-20.101488
239.266550	0.334771	0.602416	0.689185	102.641678	7.193156	0.075385	54.183461	54.183461	54.183461	-0.017239	10.634068	2.830000	1.047521	0.393430	-19.809256
242.713072	0.343222	0.607403	0.697667	102.659835	7.170389	0.073547	54.209209	54.209209	54.209209	-0.024219	10.625581	2.830000	1.052750	0.394679	-19.519168
246.209240	0.351849	0.612320	0.706211	102.677595	7.148342	0.071755	54.243999	54.243999	54.243999	-0.031017	10.617537	2.830000	1.057865	0.395896	-19.231239
249.755769	0.360654	0.617162	0.714815	102.694968	7.126993	0.070007	54.287856	54.287856	54.287856	-0.037638	10.609930	2.830000	1.062866	0.397082	-18.945477
253.353383	0.369637	0.621922	0.723477	102.711964	7.106323	0.068303	54.340806	54.340806	54.340806	-0.044084	10.602756	2.830000	1.067756	0.398237	-18.661892
257.002820	0.378801	0.626594	0.732195	102.728593	7.086311	0.066641	54.402872	54.402872	54.402872	-0.050356	10.596010	2.830000	1.072535	0.399362	-18.380490
260.704825	0.388145	0.631173	0.740969	102.744865	7.066938	0.065021	54.474078	54.474078	54.474078	-0.056459	10.589688	2.830000	1.077203	0.400456	-18.101276
264.460155	0.397671	0.635650	0.749795	102.760790	7.048188	0.063441	54.554445	54.554445	54.554445	-0.062392	10.583786	2.830000	1.081763	0.401522	-17.824252
268.269580	0.407379	0.640020	0.758672	102.776378	7.030041	0.061902	54.643993	54.643993	54.643993	-0.068161	10.578301	2.830000	1.086216	0.402558	-17.549420
272.133877	0.417270	0.644276	0.767597	102.791638	7.012482	0.060401	54.742741	54.742741	54.742741	-0.073765	10.573229	2.830000	1.090562	0.403566	-17.276777
276.053838	0.427344	0.648409	0.776568	102.806580	6.995493	0.058939	54.850707	54.850707	54.850707	-0.079209	10.568569	2.830000	1.094803	0.404546	-17.006324
280.030263	0.437602	0.652414	0.785582	102.821213	6.979061	0.057514	54.967906	54.967906	54.967906	-0.084493	10.564317	2.830000	1.098941	0.405499	-16.738054
284.063968	0.448042	0.656281	0.794636	102.835548	6.963168	0.056125	55.094352	55.094352	55.094352	-0.089621	10.560471	2.830000	1.102975	0.406424	-16.471963
288.155776	0.458665	0.660004	0.803728	102.849592	6.947802	0.054772	55.230060	55.230060	55.230060	-0.094595	10.557031	2.830000	1.106909	0.407323	-16.208045
292.306525	0.469470	0.663575	0.812855	102.863357	6.932947	0.053454	55.375039	55.375039	55.375039	-0.099416	10.553995	2.830000	1.110742	0.408196	-15.946291
296.517063	0.480455	0.666984	0.822012	102.876849	6.918592	0.052170	55.529300	55.529300	55.529300	-0.104086	10.551362	2.830000	1.114476	0.409043	-15.686692
300.788252	0.491619	0.670224	0.831197	102.890079	6.904722	0.050919	55.692849	55.692849	55.692849	-0.108608	10.549132	2.830000	1.118113	0.409864	-15.429237
305.120965	0.502961	0.673286	0.840407	102.903056	6.891326	0.049701	55.865692	55.865692	55.865692	-0.112983	10.547305	2.830000	1.121653	0.410661	-15.173915
309.516090	0.514479	0.676161	0.849637	102.915788	6.878392	0.048515	56.047834	56.047834	56.047834	-0.117214	10.545881	2.830000	1.125098	0.411433	-14.920713
313.974523	0.526169	0.678841	0.858883	102.928285	6.865908	0.047360	56.239275	56.239275	56.239275	-0.121302	10.544862	2.830000	1.128449	0.412181	-14.669617
318.497179	0.538031	0.681316	0.868141	102.940554	6.853864	0.046235	56.440014	56.440014	56.440014	-0.125250	10.544249	2.830000	1.131707	0.412906	-14.420614
323.084981	0.550059	0.683577	0.877406	102.952605	6.842250	0.045140	56.650049	56.650049	56.650049	-0.129057	10.544044	2.830000	1.134874	0.413607	-14.173686
327.738869	0.562251	0.685614	0.886675	102.964447	6.831054	0.044074	56.869372	56.869372	56.869372	-0.132728	10.544248	2.830000	1.137951	0.414285	-13.928818
332.459793	0.574603	0.687419	0.895943	102.976087	6.820269	0.043036	57.097977	57.097977	57.097977	-0.136262	10.544866	2.830000	1.140938	0.414940	-13.685993
337.248720	0.587109	0.688981	0.905203	102.987535	6.809883	0.042026	57.335850	57.335850	57.335850	-0.139661	10.545899	2.830000	1.143837	0.415572	-13.445193
342.106630	0.599766	0.690292	0.914452	102.998798	6.799890	0.041043	57.582978	57.582978	57.582978	-0.142927	10.547352	2.830000	1.146650	0.416183	-13.206398
347.034515	0.612567	0.691340	0.923682	103.009886	6.790281	0.040087	57.839342	57.839342	57.839342	-0.146061	10.549229	2.830000	1.149376	0.416772	-12.969591
352.033384	0.625507	0.692116	0.932890	103.020806	6.781047	0.039156	58.104922	58.104922	58.104922	-0.149065	10.551535	2.830000	1.152018	0.417340	-12.734750
357.104260	0.638579	0.692611	0.942068	103.031567	6.772181	0.038250	58.379692	58.379692	58.379692	-0.151940	10.554275	2.830000	1.154576	0.417886	-12.501857
362.248179	0.651775	0.692814	0.951211	103.042177	6.763677	0.037369	58.663624	58.663624	58.663624	-0.154686	10.557454	2.830000	1.157052	0.418411	-12.270889
367.466194	0.665089	0.692715	0.960311	103.052645	6.755527	0.036511	58.956684	58.956684	58.956684	-0.157304	10.561081	2.830000	1.159446	0.418916	-12.041826
372.759372	0.678511	0.692306	0.969363	103.062978	6.747726	0.035678	59.258834	59.258834	59.258834	-0.159797	10.565160	2.830000	1.161759	0.419401	-11.814647
378.128796	0.692033	0.691575	0.978358	103.073186	6.740266	0.034867	59.570034	59.570034	59.570034	-0.162164	10.569701	2.830000	1.163993	0.419865	-11.589329
383.575563	0.705645	0.690513	0.987291	103.083275	6.733143	0.034078	59.890234	59.890234	59.890234	-0.164406	10.574711	2.830000	1.166147	0.420309	-11.365851
389.100789	0.719337	0.689111	0.996153	103.093255	6.726352	0.033311	60.219383	60.219383	60.219383	-0.166524	10.580200	2.830000	1.168224	0.420733	-11.144189
394.705603	0.733097	0.687360	1.004935	103.103134	6.719887	0.032565	60.557421	60.557421	60.557421	-0.168519	10.586177	2.830000	1.170223	0.421138	-10.924322
400.391152	0.746915	0.685250	1.013632	103.112920	6.713744	0.031841	60.904286	60.904286	60.904286	-0.170390	10.592652	2.830000	1.172146	0.421523	-10.706227
406.158599	0.760777	0.682772	1.022232	103.122620	6.707919	0.031136	61.259905	61.259905	61.259905	-0.172139	10.599637	2.830000	1.173993	0.421889	-10.489883
412.009123	0.774670	0.679918	1.030729	103.132245	6.702408	0.030451	61.624200	61.624200	61.624200	-0.173765	10.607144	2.830000	1.175765	0.422236	-10.275265
417.943921	0.788582	0.676680	1.039113	103.141801	6.697208	0.029785	61.997087	61.997087	61.997087	-0.175269	10.615184	2.830000	1.177462	0.422564	-10.062352
423.964207	0.802496	0.673049	1.047375	103.151298	6.692316	0.029139	62.378472	62.378472	62.378472	-0.176651	10.623773	2.830000	1.179086	0.422873	-9.851123
430.071212	0.816398	0.669018	1.055505	103.160743	6.687729	0.028510	62.768254	62.768254	62.768254	-0.177911	10.632923	2.830000	1.180636	0.423163	-9.641555
436.266186	0.830271	0.664581	1.063493	103.170145	6.683445	0.027900	63.166322	63.166322	63.166322	-0.179048	10.642651	2.830000	1.182113	0.423434	-9.433627
442.550395	0.844099	0.659731	1.071330	103.179514	6.679462	0.027307	63.572558	63.572558	63.572558	-0.180062	10.652973	2.830000	1.183518	0.423687	-9.227318
448.925126	0.857864	0.654462	1.079004	103.188856	6.675779	0.026731	63.986830	63.986830	63.986830	-0.180952	10.663906	2.830000	1.184851	0.423921	-9.022609
455.391681	0.871547	0.648769	1.086506	103.198182	6.672394	0.026172	64.408998	64.408998	64.408998	-0.181719	10.675469	2.830000	1.186112	0.424136	-8.819478
461.951385	0.885129	0.642649	1.093824	103.207500	6.669307	0.025629	64.838910	64.838910	64.838910	-0.182361	10.687680	2.830000	1.187301	0.424332	-8.617909
468.605578	0.898590	0.636097	1.100947	103.216818	6.666517	0.025102	65.276403	65.276403	65.276403	-0.182877	10.700560	2.830000	1.188419	0.424510	-8.417882
475.355621	0.911911	0.629111	1.107863	103.226147	6.664025	0.024590	65.721299	65.721299	65.721299	-0.183267	10.714131	2.830000	1.189466	0.424668	-8.219382
482.202895	0.925068	0.621689	1.114562	103.235494	6.661831	0.024094	66.173407	66.173407	66.173407	-0.183530	10.728416	2.830000	1.190442	0.424808	-8.022392
489.148802	0.938041	0.613831	1.121031	103.244869	6.659936	0.023613	66.632523	66.632523	66.632523	-0.183663	10.743439	2.830000	1.191346	0.424929	-7.826900
496.194760	0.950807	0.605538	1.127257	103.254282	6.658341	0.023146	67.098424	67.098424	67.098424	-0.183666	10.759226	2.830000	1.192179	0.425031	-7.632892
503.342213	0.963342	0.596810	1.133230	103.263743	6.657048	0.022693	67.570874	67.570874	67.570874	-0.183537	10.775803	2.830000	1.192941	0.425113	-7.440358
510.592621	0.975623	0.587651	1.138935	103.273259	6.656060	0.022254	68.049618	68.049618	68.049618	-0.183274	10.793198	2.830000	1.193631	0.425176	-7.249289
517.947468	0.987625	0.578066	1.144362	103.282842	6.655379	0.021828	68.534382	68.534382	68.534382	-0.182875	10.811442	2.830000	1.194249	0.425220	-7.059680
525.408258	0.999325	0.568060	1.149496	103.292502	6.655009	0.021416	69.024873	69.024873	69.024873	-0.182339	10.830566	2.830000	1.194795	0.425244	-6.871526
532.976517	1.010696	0.557640	1.154326	103.302248	6.654952	0.021016	69.520776	69.520776	69.520776	-0.181662	10.850602	2.830000	1.195268	0.425247	-6.684826
540.653794	1.021714	0.546815	1.158838	103.312090	6.655214	0.020629	70.021755	70.021755	70.021755	-0.180843	10.871585	2.830000	1.195668	0.425231	-6.499583
548.441658	1.032353	0.535596	1.163020	103.322039	6.655799	0.020254	70.527450	70.527450	70.527450	-0.179878	10.893552	2.830000	1.195993	0.425193	-6.315802
556.341702	1.042588	0.523994	1.166859	103.332106	6.656712	0.019891	71.037475	71.037475	71.037475	-0.178765	10.916540	2.830000	1.196244	0.425135	-6.133494
564.355543	1.052393	0.512024	1.170342	103.342300	6.657959	0.019540	71.551419	71.551419	71.551419	-0.177501	10.940589	2.830000	1.196420	0.425055	-5.952672
572.484820	1.061743	0.499702	1.173456	103.352633	6.659546	0.019201	72.068842	72.068842	72.068842	-0.176083	10.965741	2.830000	1.196519	0.424954	-5.773356
580.731195	1.070612	0.487045	1.176190	103.363116	6.661481	0.018872	72.589275	72.589275	72.589275	-0.174507	10.992038	2.830000	1.196541	0.424830	-5.595569
589.096355	1.078976	0.474073	1.178531	103.373758	6.663771	0.018555	73.112216	73.112216	73.112216	-0.172771	11.019527	2.830000	1.196485	0.424684	-5.419343
597.582011	1.086811	0.460807	1.180467	103.384572	6.666423	0.018248	73.637132	73.637132	73.637132	-0.170869	11.048253	2.830000	1.196349	0.424516	-5.244713
606.189899	1.094093	0.447273	1.181987	103.395568	6.669447	0.017951	74.163455	74.163455	74.163455	-0.168798	11.078265	2.830000	1.196133	0.424323	-5.071725
614.921780	1.100799	0.433494	1.183079	103.406757	6.672851	0.017665	74.690579	74.690579	74.690579	-0.166555	11.109614	2.830000	1.195834	0.424107	-4.900430
623.779440	1.106908	0.419500	1.183734	103.418149	6.676645	0.017389	75.217861	75.217861	75.217861	-0.164134	11.142351	2.830000	1.195453	0.423866	-4.730890
632.764690	1.112400	0.405320	1.183941	103.429756	6.680839	0.017123	75.744617	75.744617	75.744617	-0.161533	11.176529	2.830000	1.194987	0.423599	-4.563177
641.879368	1.117255	0.390986	1.183692	103.441589	6.685445	0.016866	76.270121	76.270121	76.270121	-0.158746	11.212204	2.830000	1.194434	0.423308	-4.397372
651.125339	1.121455	0.376533	1.182979	103.453656	6.690472	0.016618	76.793603	76.793603	76.793603	-0.155769	11.249430	2.830000	1.193794	0.422990	-4.233569
660.504493	1.124986	0.361997	1.181793	103.465969	6.695933	0.016380	77.314246	77.314246	77.314246	-0.152598	11.288265	2.830000	1.193065	0.422645	-4.071877
670.018750	1.127834	0.347416	1.180130	103.478536	6.701841	0.016150	77.831188	77.831188	77.831188	-0.149229	11.328764	2.830000	1.192245	0.422272	-3.912416
679.670056	1.129987	0.332830	1.177984	103.491367	6.708206	0.015929	78.343516	78.343516	78.343516	-0.145656	11.370983	2.830000	1.191333	0.421871	-3.755324
689.460384	1.131436	0.318281	1.175351	103.504468	6.715041	0.015716	78.850267	78.850267	78.850267	-0.141876	11.414979	2.830000	1.190326	0.421442	-3.600756
699.391737	1.132176	0.303813	1.172231	103.517847	6.722359	0.015512	79.350426	79.350426	79.350426	-0.137885	11.460806	2.830000	1.189225	0.420983	-3.448886
709.466146	1.132203	0.289470	1.168622	103.531510	6.730171	0.015316	79.842925	79.842925	79.842925	-0.133679	11.508516	2.830000	1.188026	0.420494	-3.299909
719.685673	1.131517	0.275299	1.164526	103.545461	6.738491	0.015127	80.326645	80.326645	80.326645	-0.129256	11.558156	2.830000	1.186730	0.419975	-3.154040
730.052407	1.130122	0.261348	1.159947	103.559702	6.747328	0.014946	80.800413	80.800413	80.800413	-0.124612	11.609772	2.830000	1.185334	0.419425	-3.011520
740.568469	1.128023	0.247666	1.154892	103.574234	6.756693	0.014772	81.263001	81.263001	81.263001	-0.119745	11.663400	2.830000	1.183839	0.418844	-2.872616
751.236010	1.125233	0.234300	1.149367	103.589055	6.766596	0.014605	81.713135	81.713135	81.713135	-0.114655	11.719072	2.830000	1.182243	0.418231	-2.737619
762.057212	1.121764	0.221301	1.143385	103.604161	6.777044	0.014445	82.149488	82.149488	82.149488	-0.109342	11.776806	2.830000	1.180546	0.417586	-2.606852
773.034288	1.117637	0.208719	1.136959	103.619543	6.788042	0.014292	82.570690	82.570690	82.570690	-0.103807	11.836612	2.830000	1.178749	0.416910	-2.480667
784.169484	1.112874	0.196603	1.130107	103.635189	6.799592	0.014144	82.975328	82.975328	82.975328	-0.098052	11.898483	2.830000	1.176852	0.416201	-2.359448
795.465078	1.107503	0.185001	1.122848	103.651085	6.811693	0.014003	83.361956	83.361956	83.361956	-0.092083	11.962395	2.830000	1.174856	0.415462	-2.243608
806.923378	1.101555	0.173961	1.115207	103.667209	6.824341	0.013867	83.729099	83.729099	83.729099	-0.085907	12.028302	2.830000	1.172765	0.414692	-2.133594
818.546731	1.095068	0.163530	1.107210	103.683536	6.837525	0.013736	84.075266	84.075266	84.075266	-0.079532	12.096135	2.830000	1.170581	0.413892	-2.029886
830.337512	1.088082	0.153750	1.098891	103.700033	6.851228	0.013610	84.398959	84.398959	84.398959	-0.072971	12.165794	2.830000	1.168308	0.413065	-1.932989
842.298134	1.080643	0.144666	1.090283	103.716662	6.865428	0.013489	84.698690	84.698690	84.698690	-0.066239	12.237147	2.830000	1.165951	0.412210	-1.843439
854.431043	1.072802	0.136314	1.081428	103.733377	6.880093	0.013372	84.972996	84.972996	84.972996	-0.059356	12.310022	2.830000	1.163518	0.411332	-1.761791
866.738721	1.064614	0.128730	1.072369	103.750123	6.895182	0.013258	85.220459	85.220459	85.220459	-0.052344	12.384206	2.830000	1.161017	0.410432	-1.688620
879.223685	1.056138	0.121947	1.063155	103.766839	6.910642	0.013147	85.439730	85.439730	85.439730	-0.045230	12.459436	2.830000	1.158457	0.409513	-1.624505
891.888489	1.047437	0.115989	1.053839	103.783454	6.926410	0.013039	85.629555	85.629555	85.629555	-0.038047	12.535399	2.830000	1.155850	0.408581	-1.570025
904.735724	1.038577	0.110881	1.044480	103.799886	6.942409	0.012933	85.788806	85.788806	85.788806	-0.030833	12.611720	2.830000	1.153211	0.407640	-1.525743
917.768017	1.029630	0.106636	1.035138	103.816047	6.958546	0.012829	85.916512	85.916512	85.916512	-0.023629	12.687967	2.830000	1.150554	0.406694	-1.492189
930.988035	1.020669	0.103267	1.025880	103.831838	6.974716	0.012725	86.011893	86.011893	86.011893	-0.016485	12.763645	2.830000	1.147898	0.405751	-1.469841
944.398480	1.011769	0.100775	1.016775	103.847150	6.990796	0.012622	86.074405	86.074405	86.074405	-0.009452	12.838193	2.830000	1.145263	0.404818	-1.459106
958.002097	1.003008	0.099157	1.007897	103.861867	7.006647	0.012518	86.103773	86.103773	86.103773	-0.002591	12.910990	2.830000	1.142672	0.403902	-1.460289
971.801667	0.994465	0.098402	0.999322	103.875868	7.022118	0.012413	86.100033	86.100033	86.100033	0.004036	12.981355	2.830000	1.140148	0.403012	-1.473570
985.800014	0.986219	0.098491	0.991125	103.889024	7.037040	0.012306	86.063576	86.063576	86.063576	0.010362	13.048560	2.830000	1.137717	0.402158	-1.498977
1000.000000	0.978350	0.099396	0.983386	103.901205	7.051236	0.012197	85.995179	85.995179	85.995179	0.016315	13.111834	2.830000	1.135407	0.401348	-1.536352
1014.404530	0.970934	0.101081	0.976181	103.912281	7.064520	0.012085	85.896046	85.896046	85.896046	0.021825	13.170385	2.830000	1.133245	0.400593	-1.585328
1029.016551	0.964048	0.103502	0.969588	103.922123	7.076702	0.011970	85.767827	85.767827	85.767827	0.026820	13.223419	2.830000	1.131261	0.399904	-1.645306
1043.839051	0.957763	0.106606	0.963678	103.930610	7.087594	0.011850	85.612646	85.612646	85.612646	0.031229	13.270156	2.830000	1.129482	0.399289	-1.715434
1058.875063	0.952149	0.110330	0.958520	103.937634	7.097015	0.011726	85.433099	85.433099	85.433099	0.034988	13.309868	2.830000	1.127935	0.398759	-1.794603
1074.127661	0.947267	0.114604	0.954174	103.943100	7.104801	0.011596	85.232258	85.232258	85.232258	0.038036	13.341897	2.830000	1.126644	0.398322	-1.881443
1089.599965	0.943173	0.119351	0.950695	103.946931	7.110808	0.011461	85.013643	85.013643	85.013643	0.040325	13.365693	2.830000	1.125631	0.397986	-1.974338
1105.295141	0.939917	0.124485	0.948125	103.949077	7.114923	0.011321	84.781194	84.781194	84.781194	0.041815	13.380836	2.830000	1.124913	0.397756	-2.071453
1121.216399	0.937538	0.129912	0.946496	103.949512	7.117067	0.011175	84.539212	84.539212	84.539212	0.042482	13.387069	2.830000	1.124502	0.397636	-2.170773
1137.366994	0.936067	0.135534	0.945828	103.948241	7.117203	0.011023	84.292298	84.292298	84.292298	0.042315	13.384310	2.830000	1.124404	0.397628	-2.270154
1153.750232	0.935521	0.141248	0.946124	103.945302	7.115340	0.010866	84.045264	84.045264	84.045264	0.041321	13.372673	2.830000	1.124622	0.397732	-2.367385
1170.369462	0.935908	0.146945	0.947374	103.940765	7.111531	0.010704	83.803044	83.803044	83.803044	0.039523	13.352469	2.830000	1.125147	0.397945	-2.460256
1187.228084	0.937224	0.152516	0.949552	103.934731	7.105877	0.010537	83.570585	83.570585	83.570585	0.036964	13.324207	2.830000	1.125968	0.398262	-2.546631
1204.329547	0.939449	0.157848	0.952617	103.927333	7.098521	0.010367	83.352742	83.352742	83.352742	0.033700	13.288576	2.830000	1.127066	0.398675	-2.624512
1221.677349	0.942549	0.162831	0.956511	103.918733	7.089646	0.010193	83.154167	83.154167	83.154167	0.029803	13.246431	2.830000	1.128415	0.399174	-2.692107
1239.275037	0.946479	0.167358	0.961162	103.909115	7.079467	0.010016	82.979202	82.979202	82.979202	0.025360	13.198762	2.830000	1.129985	0.399748	-2.747876
1257.126212	0.951177	0.171323	0.966483	103.898684	7.068225	0.009837	82.831778	82.831778	82.831778	0.020466	13.146662	2.830000	1.131741	0.400383	-2.790578
1275.234525	0.956567	0.174630	0.972377	103.887658	7.056174	0.009658	82.715329	82.715329	82.715329	0.015224	13.091295	2.830000	1.133646	0.401067	-2.819291
1293.603680	0.962560	0.177189	0.978732	103.876267	7.043582	0.009479	82.632711	82.632711	82.632711	0.009745	13.033858	2.830000	1.135659	0.401784	-2.833422
1312.237433	0.969053	0.178922	0.985432	103.864739	7.030715	0.009300	82.586144	82.586144	82.586144	0.004140	12.975553	2.830000	1.137738	0.402520	-2.832709
1331.139597	0.975932	0.179763	0.992350	103.853304	7.017835	0.009124	82.577167	82.577167	82.577167	-0.001481	12.917552	2.830000	1.139842	0.403258	-2.817206
1350.314038	0.983072	0.179662	0.999355	103.842184	7.005191	0.008950	82.606604	82.606604	82.606604	-0.007010	12.860977	2.830000	1.141928	0.403986	-2.787254
1369.764677	0.990341	0.178584	1.006313	103.831591	6.993017	0.008780	82.674553	82.674553	82.674553	-0.012344	12.806877	2.830000	1.143958	0.404689	-2.743462
1389.495494	0.997597	0.176512	1.013093	103.821721	6.981530	0.008614	82.780380	82.780380	82.780380	-0.017385	12.756215	2.830000	1.145895	0.405355	-2.686665
1409.510524	1.004698	0.173452	1.019560	103.812755	6.970923	0.008453	82.922731	82.922731	82.922731	-0.022046	12.709859	2.830000	1.147702	0.405972	-2.617900
1429.813862	1.011498	0.169427	1.025589	103.804853	6.961369	0.008297	83.099553	83.099553	83.099553	-0.026245	12.668575	2.830000	1.149349	0.406529	-2.538368
1450.409659	1.017854	0.164485	1.031059	103.798155	6.953018	0.008148	83.308121	83.308121	83.308121	-0.029912	12.633025	2.830000	1.150807	0.407017	-2.449411
1471.302129	1.023629	0.158692	1.035857	103.792780	6.945999	0.008004	83.545072	83.545072	83.545072	-0.032986	12.603766	2.830000	1.152052	0.407429	-2.352488
1492.495545	1.028694	0.152140	1.039884	103.788823	6.940416	0.007868	83.806455	83.806455	83.806455	-0.035415	12.581255	2.830000	1.153062	0.407757	-2.249153
1513.994242	1.032933	0.144938	1.043052	103.786356	6.936355	0.007738	84.087771	84.087771	84.087771	-0.037160	12.565844	2.830000	1.153821	0.407995	-2.141042
1535.802619	1.036245	0.137217	1.045290	103.785426	6.933879	0.007615	84.384035	84.384035	84.384035	-0.038188	12.557784	2.830000	1.154314	0.408141	-2.029864
1557.925134	1.038549	0.129123	1.046545	103.786058	6.933030	0.007499	84.689836	84.689836	84.689836	-0.038482	12.557222	2.830000	1.154534	0.408191	-1.917389
1580.366314	1.039789	0.120818	1.046785	103.788246	6.933827	0.007390	84.999410	84.999410	84.999410	-0.038033	12.564197	2.830000	1.154474	0.408144	-1.805448
1603.130749	1.039932	0.112475	1.045997	103.791961	6.936266	0.007288	85.306724	85.306724	85.306724	-0.036846	12.578636	2.830000	1.154136	0.408001	-1.695922
1626.223094	1.038975	0.104272	1.044194	103.797140	6.940317	0.007192	85.605571	85.605571	85.605571	-0.034937	12.600339	2.830000	1.153523	0.407762	-1.590732
1649.648074	1.036944	0.096392	1.041414	103.803694	6.945920	0.007102	85.889687	85.889687	85.889687	-0.032339	12.628969	2.830000	1.152646	0.407433	-1.491829
1673.410480	1.033896	0.089011	1.037721	103.811496	6.952983	0.007018	86.152879	86.152879	86.152879	-0.029100	12.664036	2.830000	1.151521	0.407020	-1.401171
1697.515172	1.029922	0.082300	1.033205	103.820386	6.961377	0.006938	86.389184	86.389184	86.389184	-0.025282	12.704881	2.830000	1.150171	0.406529	-1.320686
1721.967081	1.025139	0.076414	1.027983	103.830165	6.970931	0.006864	86.593043	86.593043	86.593043	-0.020971	12.750658	2.830000	1.148625	0.405972	-1.252229
1746.771208	1.019696	0.071488	1.022198	103.840600	6.981430	0.006792	86.759502	86.759502	86.759502	-0.016267	12.800320	2.830000	1.146921	0.405361	-1.197517
1771.932627	1.013765	0.067631	1.016018	103.851419	6.992611	0.006724	86.884428	86.884428	86.884428	-0.011294	12.852614	2.830000	1.145104	0.404713	-1.158046
1797.456484	1.007541	0.064922	1.009630	103.862316	7.004161	0.006657	86.964742	86.964742	86.964742	-0.006191	12.906084	2.830000	1.143224	0.404046	-1.134991
1823.348001	1.001234	0.063403	1.003239	103.872960	7.015726	0.006591	86.998648	86.998648	86.998648	-0.001115	12.959090	2.830000	1.141342	0.403379	-1.129094
1849.612473	0.995061	0.063078	0.997059	103.883001	7.026911	0.006525	86.985856	86.985856	86.985856	0.003762	13.009846	2.830000	1.139521	0.402737	-1.140546
1876.255272	0.989244	0.063908	0.991307	103.892083	7.037301	0.006458	86.927763	86.927763	86.927763	0.008264	13.056487	2.830000	1.137827	0.402143	-1.168869
1903.281848	0.983997	0.065813	0.986195	103.899864	7.046472	0.006389	86.827578	86.827578	86.827578	0.012215	13.097154	2.830000	1.136328	0.401619	-1.212831
1930.697729	0.979517	0.068667	0.981921	103.906030	7.054025	0.006317	86.690368	86.690368	86.690368	0.015450	13.130105	2.830000	1.135087	0.401189	-1.270390
1958.508523	0.975978	0.072309	0.978653	103.910321	7.059606	0.006242	86.522995	86.522995	86.522995	0.017826	13.153842	2.830000	1.134159	0.400872	-1.338707
1986.719919	0.973524	0.076540	0.976528	103.912550	7.062943	0.006163	86.333929	86.333929	86.333929	0.019234	13.167235	2.830000	1.133587	0.400683	-1.414228
2015.337686	0.972254	0.081130	0.975633	103.912623	7.063868	0.006079	86.132938	86.132938	86.132938	0.019608	13.169638	2.830000	1.133399	0.400630	-1.492847
2044.367679	0.972222	0.085831	0.976003	103.910548	7.062341	0.005992	85.930653	85.930653	85.930653	0.018932	13.160974	2.830000	1.133603	0.400717	-1.570139
2073.815835	0.973430	0.090382	0.977617	103.906445	7.058458	0.005900	85.738035	85.738035	85.738035	0.017248	13.141777	2.830000	1.134187	0.400937	-1.641645
2103.688178	0.975821	0.094523	0.980389	103.900543	7.052452	0.005805	85.565784	85.565784	85.565784	0.014651	13.113176	2.830000	1.135118	0.401279	-1.703178
2133.990819	0.979286	0.098005	0.984178	103.893171	7.044677	0.005708	85.423729	85.423729	85.423729	0.011287	13.076832	2.830000	1.136342	0.401722	-1.751108
2164.729954	0.983659	0.100604	0.988790	103.884734	7.035584	0.005609	85.320252	85.320252	85.320252	0.007345	13.034828	2.830000	1.137791	0.402241	-1.782605
2195.911873	0.988723	0.102136	0.993984	103.875697	7.025689	0.005509	85.261789	85.261789	85.261789	0.003041	12.989532	2.830000	1.139385	0.402807	-1.795799
2227.542952	0.994223	0.102464	0.999489	103.866550	7.015541	0.005410	85.252441	85.252441	85.252441	-0.001390	12.943437	2.830000	1.141037	0.403390	-1.789870
2259.629662	0.999872	0.101512	1.005012	103.857786	7.005684	0.005313	85.293721	85.293721	85.293721	-0.005710	12.899021	2.830000	1.142658	0.403958	-1.765047
2292.178566	1.005367	0.099270	1.010256	103.849872	6.996633	0.005218	85.384442	85.384442	85.384442	-0.009691	12.858612	2.830000	1.144162	0.404480	-1.722546
2325.196322	1.010406	0.095803	1.014937	103.843226	6.988848	0.005128	85.520741	85.520741	85.520741	-0.013128	12.824281	2.830000	1.145471	0.404931	-1.664465
2358.689683	1.014701	0.091244	1.018795	103.838198	6.982718	0.005041	85.696236	85.696236	85.696236	-0.015842	12.797756	2.830000	1.146517	0.405286	-1.593647
2392.665500	1.018003	0.085797	1.021612	103.835055	6.978543	0.004960	85.902297	85.902297	85.902297	-0.017694	12.780367	2.830000	1.147246	0.405529	-1.513542
2427.130723	1.020113	0.079726	1.023224	103.833967	6.976533	0.004884	86.128424	86.128424	86.128424	-0.018588	12.772995	2.830000	1.147621	0.405646	-1.428061
2462.092401	1.020901	0.073343	1.023532	103.834999	6.976790	0.004813	86.362720	86.362720	86.362720	-0.018473	12.776036	2.830000	1.147620	0.405631	-1.341434
2497.557686	1.020318	0.066988	1.022515	103.838104	6.979310	0.004748	86.592461	86.592461	86.592461	-0.017353	12.789369	2.830000	1.147244	0.405484	-1.258057
2533.533832	1.018402	0.061012	1.020228	103.843117	6.983968	0.004687	86.804749	86.804749	86.804749	-0.015284	12.812324	2.830000	1.146511	0.405214	-1.182334
2570.028197	1.015283	0.055749	1.016813	103.849753	6.990516	0.004631	86.987257	86.987257	86.987257	-0.012380	12.843661	2.830000	1.145462	0.404834	-1.118468
2607.048246	1.011179	0.051497	1.012490	103.857614	6.998578	0.004579	87.129042	87.129042	87.129042	-0.008813	12.881560	2.830000	1.144161	0.404368	-1.070231
2644.601552	1.006384	0.048488	1.007552	103.866195	7.007651	0.004529	87.221400	87.221400	87.221400	-0.004809	12.923648	2.830000	1.142691	0.403844	-1.040665
2682.695795	1.001251	0.046873	1.002347	103.874909	7.017121	0.004481	87.258707	87.258707	87.258707	-0.000639	12.967068	2.830000	1.141152	0.403299	-1.031756
2721.338768	0.996168	0.046701	0.997262	103.883119	7.026288	0.004433	87.239166	87.239166	87.239166	0.003389	13.008629	2.830000	1.139659	0.402773	-1.044101
2760.538375	0.991533	0.047913	0.992690	103.890185	7.034423	0.004383	87.165348	87.165348	87.165348	0.006962	13.045032	2.830000	1.138329	0.402307	-1.076622
2800.302634	0.987716	0.050337	0.988998	103.895523	7.040823	0.004332	87.044404	87.044404	87.044404	0.009780	13.073177	2.830000	1.137275	0.401942	-1.126406
2840.639679	0.985032	0.053696	0.986494	103.898667	7.044905	0.004278	86.887845	86.887845	86.887845	0.011594	13.090518	2.830000	1.136591	0.401709	-1.188757
2881.557759	0.983709	0.057628	0.985395	103.899337	7.046275	0.004220	86.710799	86.710799	86.710799	0.012239	13.095418	2.830000	1.136341	0.401631	-1.257508
2923.065245	0.983860	0.061714	0.985794	103.897477	7.044803	0.004159	86.530771	86.530771	86.530771	0.011655	13.087427	2.830000	1.136548	0.401715	-1.325602
2965.170628	0.985473	0.065506	0.987647	103.893282	7.040653	0.004095	86.365992	86.365992	86.365992	0.009909	13.067415	2.830000	1.137190	0.401951	-1.385870
3007.882518	0.988395	0.068575	0.990771	103.887188	7.034273	0.004028	86.233547	86.233547	86.233547	0.007183	13.037527	2.830000	1.138198	0.402316	-1.431888
3051.209653	0.992349	0.070548	0.994854	103.879830	7.026350	0.003960	86.147534	86.147534	86.147534	0.003767	13.000949	2.830000	1.139469	0.402770	-1.458741
3095.160895	0.996946	0.071152	0.999482	103.871973	7.017722	0.003891	86.117485	86.117485	86.117485	0.000017	12.961541	2.830000	1.140867	0.403265	-1.463585
3139.745234	1.001721	0.070244	1.004181	103.864430	7.009287	0.003823	86.147263	86.147263	86.147263	-0.003677	12.923395	2.830000	1.142249	0.403750	-1.445909
3184.971790	1.006179	0.067835	1.008463	103.857979	7.001905	0.003758	86.234547	86.234547	86.234547	-0.006935	12.890409	2.830000	1.143472	0.404176	-1.407526
3230.849813	1.009844	0.064099	1.011877	103.853285	6.996315	0.003696	86.370949	86.370949	86.370949	-0.009424	12.865905	2.830000	1.144412	0.404499	-1.352322
3277.388687	1.012315	0.059361	1.014054	103.850832	6.993072	0.003638	86.542721	86.542721	86.542721	-0.010891	12.852335	2.830000	1.144974	0.404686	-1.285849
3324.597932	1.013312	0.054070	1.014753	103.850876	6.992500	0.003584	86.732006	86.732006	86.732006	-0.011181	12.851069	2.830000	1.145098	0.404719	-1.214825
3372.487204	1.012721	0.048754	1.013894	103.853418	6.994660	0.003535	86.918530	86.918530	86.918530	-0.010262	12.862246	2.830000	1.144773	0.404594	-1.146571
3421.066299	1.010614	0.043959	1.011569	103.858182	6.999327	0.003491	87.081663	87.081663	87.081663	-0.008228	12.884701	2.830000	1.144032	0.404325	-1.088372
3470.345152	1.007252	0.040183	1.008053	103.864630	7.005994	0.003449	87.202724	87.202724	87.202724	-0.005304	12.915961	2.830000	1.142959	0.403940	-1.046767
3520.333844	1.003062	0.037812	1.003774	103.871994	7.013883	0.003410	87.267363	87.267363	87.267363	-0.001831	12.952369	2.830000	1.141681	0.403485	-1.026752
3571.042600	0.998591	0.037060	0.999279	103.879346	7.022008	0.003372	87.267767	87.267767	87.267767	0.001758	12.989361	2.830000	1.140358	0.403019	-1.030961
3622.481792	0.994440	0.037931	0.995163	103.885703	7.029276	0.003334	87.204330	87.204330	87.204330	0.004986	13.021966	2.830000	1.139169	0.402602	-1.058951
3674.661941	0.991180	0.040207	0.991995	103.890164	7.034636	0.003294	87.086366	87.086366	87.086366	0.007398	13.045497	2.830000	1.138283	0.402295	-1.106826
3727.593720	0.989273	0.043465	0.990227	103.892067	7.037270	0.003251	86.931497	86.931497	86.931497	0.008636	13.056372	2.830000	1.137833	0.402145	-1.167426
3781.287957	0.988997	0.047129	0.990119	103.891117	7.036754	0.003205	86.763517	86.763517	86.763517	0.008512	13.052865	2.830000	1.137890	0.402174	-1.231224
3835.755635	0.990392	0.050548	0.991681	103.887471	7.033181	0.003156	86.608907	86.608907	86.608907	0.007053	13.035573	2.830000	1.138443	0.402378	-1.287880
3891.007893	0.993239	0.053091	0.994657	103.881734	7.027160	0.003104	86.492528	86.492528	86.492528	0.004506	13.007427	2.830000	1.139400	0.402723	-1.328105
3947.056035	0.997084	0.054252	0.998559	103.874862	7.019721	0.003052	86.433329	86.433329	86.433329	0.001304	12.973206	2.830000	1.140600	0.403150	-1.345397
4003.911523	1.001297	0.053737	1.002738	103.868009	7.012122	0.003000	86.440925	86.440925	86.440925	-0.002010	12.938687	2.830000	1.141840	0.403587	-1.337200
4061.585988	1.005169	0.051529	1.006489	103.862322	7.005631	0.002950	86.513725	86.513725	86.513725	-0.004878	12.909628	2.830000	1.142912	0.403961	-1.305287
4120.091227	1.008029	0.047905	1.009167	103.858753	7.001317	0.002902	86.638925	86.638925	86.638925	-0.006819	12.890828	2.830000	1.143639	0.404210	-1.255381
4179.439206	1.009370	0.043402	1.010302	103.857899	6.999887	0.002859	86.794361	86.794361	86.794361	-0.007504	12.885376	2.830000	1.143898	0.404292	-1.196220
4239.642065	1.008947	0.038737	1.009690	103.859900	7.001572	0.002820	86.951955	86.951955	86.951955	-0.006814	12.894152	2.830000	1.143646	0.404195	-1.138236
4300.712118	1.006843	0.034675	1.007440	103.864392	7.006076	0.002784	87.082362	87.082362	87.082362	-0.004867	12.915594	2.830000	1.142929	0.403935	-1.091979
4362.661857	1.003468	0.031890	1.003975	103.870536	7.012580	0.002751	87.160248	87.160248	87.160248	-0.002014	12.945777	2.830000	1.141878	0.403560	-1.066378
4425.503952	0.999498	0.030820	0.999973	103.877133	7.019832	0.002719	87.169473	87.169473	87.169473	0.001199	12.978868	2.830000	1.140698	0.403144	-1.066938
4489.251258	0.995746	0.031564	0.996247	103.882824	7.026344	0.002687	87.107159	87.107159	87.107159	0.004122	13.008061	2.830000	1.139631	0.402770	-1.094192
4553.916814	0.993006	0.033845	0.993582	103.886374	7.030688	0.002654	86.985474	86.985474	86.985474	0.006130	13.026963	2.830000	1.138908	0.402521	-1.142928
4619.513847	0.991868	0.037043	0.992560	103.886969	7.031857	0.002618	86.830137	86.830137	86.830137	0.006774	13.031192	2.830000	1.138694	0.402454	-1.202744
4686.055775	0.992586	0.040323	0.993405	103.884459	7.029564	0.002579	86.675325	86.675325	86.675325	0.005909	13.019697	2.830000	1.139041	0.402585	-1.260197
4753.556208	0.994991	0.042806	0.995911	103.879439	7.024370	0.002538	86.555838	86.555838	86.555838	0.003752	12.995261	2.830000	1.139865	0.402883	-1.302147
4822.028953	0.998511	0.043783	0.999471	103.873127	7.017563	0.002496	86.498479	86.498479	86.498479	0.000841	12.963900	2.830000	1.140963	0.403274	-1.319234
4891.488015	1.002291	0.042892	1.003209	103.867067	7.010823	0.002454	86.515051	86.515051	86.515051	-0.002100	12.933333	2.830000	1.142064	0.403662	-1.308346
4961.947603	1.005386	0.040230	1.006191	103.862744	7.005798	0.002414	86.598969	86.598969	86.598969	-0.004340	12.911025	2.830000	1.142899	0.403951	-1.273358
5033.422128	1.007002	0.036353	1.007658	103.861212	7.003705	0.002378	86.726391	86.726391	86.726391	-0.005320	12.902375	2.830000	1.143262	0.404072	-1.224130
5105.926210	1.006715	0.032156	1.007228	103.862833	7.005040	0.002345	86.861651	86.861651	86.861651	-0.004793	12.909416	2.830000	1.143065	0.403995	-1.174206
5179.474679	1.004607	0.028645	1.005015	103.867152	7.009440	0.002315	86.965942	86.965942	86.965942	-0.002892	12.930213	2.830000	1.142362	0.403741	-1.137688
5254.082580	1.001271	0.026663	1.001626	103.872970	7.015709	0.002287	87.007517	87.007517	87.007517	-0.000125	12.959072	2.830000	1.141346	0.403380	-1.125738
5329.765172	0.997667	0.026639	0.998023	103.878602	7.022056	0.002260	86.971136	86.971136	86.971136	0.002731	12.987708	2.830000	1.140308	0.403016	-1.143243
5406.537936	0.994862	0.028434	0.995268	103.882336	7.026556	0.002232	86.863928	86.863928	86.863928	0.004831	13.007408	2.830000	1.139560	0.402758	-1.186613
5484.416576	0.993704	0.031359	0.994199	103.882970	7.027760	0.002202	86.714973	86.714973	86.714973	0.005524	13.011813	2.830000	1.139341	0.402689	-1.243950
5563.417021	0.994553	0.034353	0.995146	103.880264	7.025249	0.002169	86.567435	86.567435	86.567435	0.004593	12.999333	2.830000	1.139724	0.402833	-1.298338
5643.555431	0.997130	0.036308	0.997791	103.875083	7.019851	0.002134	86.464885	86.464885	86.464885	0.002358	12.974045	2.830000	1.140584	0.403142	-1.333534
5724.848197	1.000581	0.036435	1.001244	103.869145	7.013389	0.002099	86.436399	86.436399	86.436399	-0.000416	12.944422	2.830000	1.141632	0.403514	-1.339796
5807.311946	1.003730	0.034544	1.004325	103.864432	7.008035	0.002065	86.486020	86.486020	86.486020	-0.002776	12.920394	2.830000	1.142515	0.403822	-1.317363
5890.963548	1.005480	0.031150	1.005963	103.862513	7.005575	0.002033	86.590598	86.590598	86.590598	-0.003914	12.909943	2.830000	1.142934	0.403964	-1.276354
5975.820111	1.005206	0.027321	1.005578	103.863996	7.006806	0.002005	86.706960	86.706960	86.706960	-0.003432	12.916412	2.830000	1.142752	0.403893	-1.233430
6061.898993	1.003015	0.024316	1.003310	103.868285	7.011245	0.001980	86.786394	86.786394	86.786394	-0.001503	12.937232	2.830000	1.142040	0.403637	-1.206378
6149.217802	0.999743	0.023115	1.000011	103.873713	7.017207	0.001956	86.792266	86.792266	86.792266	0.001164	12.964435	2.830000	1.141069	0.403294	-1.207925
6237.794396	0.996671	0.024021	0.996960	103.878098	7.022325	0.001932	86.715010	86.715010	86.715010	0.003538	12.987155	2.830000	1.140224	0.403000	-1.240426
6327.646895	0.995028	0.026502	0.995381	103.879579	7.024448	0.001907	86.578079	86.578079	86.578079	0.004657	12.995780	2.830000	1.139856	0.402879	-1.293758
6418.793677	0.995489	0.029366	0.995922	103.877455	7.022613	0.001879	86.430428	86.430428	86.430428	0.004056	12.986320	2.830000	1.140129	0.402984	-1.348526
6511.253386	0.997851	0.031232	0.998339	103.872579	7.017586	0.001849	86.326598	86.326598	86.326598	0.002008	12.962654	2.830000	1.140928	0.403273	-1.384293
6605.044933	1.001078	0.031123	1.001562	103.867040	7.011562	0.001818	86.302532	86.302532	86.302532	-0.000567	12.935044	2.830000	1.141906	0.403619	-1.389022
6700.187504	1.003724	0.028921	1.004141	103.863235	7.007181	0.001789	86.358615	86.358615	86.358615	-0.002509	12.915509	2.830000	1.142632	0.403871	-1.364722
6796.700558	1.004572	0.025476	1.004895	103.862789	7.006335	0.001763	86.458358	86.458358	86.458358	-0.002939	12.912420	2.830000	1.142788	0.403920	-1.326592
6894.603838	1.003229	0.022246	1.003475	103.865791	7.009322	0.001740	86.543894	86.543894	86.543894	-0.001661	12.926703	2.830000	1.142314	0.403748	-1.296454
6993.917368	1.000354	0.020621	1.000567	103.870685	7.014639	0.001719	86.562334	86.562334	86.562334	0.000719	12.951079	2.830000	1.141450	0.403442	-1.293104
7094.661463	0.997391	0.021228	0.997617	103.874909	7.019560	0.001698	86.492139	86.492139	86.492139	0.003024	12.972931	2.830000	1.140636	0.403159	-1.323010
7196.856730	0.995861	0.023564	0.996139	103.876138	7.021423	0.001675	86.356468	86.356468	86.356468	0.004064	12.980328	2.830000	1.140309	0.403052	-1.375736
7300.524071	0.996564	0.026205	0.996909	103.873578	7.019123	0.001650	86.213816	86.213816	86.213816	0.003286	12.968718	2.830000	1.140657	0.403184	-1.428139
7405.684692	0.999112	0.027529	0.999491	103.868516	7.013860	0.001624	86.127509	86.127509	86.127509	0.001137	12.944064	2.830000	1.141499	0.403487	-1.456844
7512.360102	1.002076	0.026617	1.002429	103.863669	7.008520	0.001597	86.129906	86.129906	86.129906	-0.001161	12.919752	2.830000	1.142371	0.403794	-1.451871
7620.572122	1.003757	0.023807	1.004040	103.861644	7.006022	0.001573	86.202708	86.202708	86.202708	-0.002296	12.908958	2.830000	1.142793	0.403938	-1.422561
7730.342884	1.003174	0.020567	1.003384	103.863431	7.007664	0.001551	86.285872	86.285872	86.285872	-0.001613	12.917133	2.830000	1.142540	0.403844	-1.392461
7841.694843	1.000688	0.018659	1.000862	103.867768	7.012330	0.001532	86.311394	86.311394	86.311394	0.000480	12.938614	2.830000	1.141782	0.403575	-1.386235
7954.650775	0.997853	0.019063	0.998035	103.871767	7.016998	0.001513	86.244513	86.244513	86.244513	0.002695	12.959315	2.830000	1.141009	0.403306	-1.414936
8069.233784	0.996478	0.021306	0.996706	103.872644	7.018503	0.001493	86.108104	86.108104	86.108104	0.003613	12.965012	2.830000	1.140738	0.403220	-1.467737
8185.467307	0.997457	0.023706	0.997739	103.869600	7.015686	0.001470	85.971237	85.971237	85.971237	0.002633	12.951018	2.830000	1.141170	0.403382	-1.517394
8303.375120	1.000118	0.024438	1.000417	103.864505	7.010344	0.001447	85.904258	85.904258	85.904258	0.000443	12.926114	2.830000	1.142028	0.403689	-1.538455
8422.981339	1.002613	0.022797	1.002872	103.860678	7.006042	0.001424	85.929518	85.929518	85.929518	-0.001423	12.906722	2.830000	1.142737	0.403937	-1.525466
8544.310429	1.003171	0.019748	1.003365	103.860555	7.005607	0.001403	86.003868	86.003868	86.003868	-0.001650	12.905389	2.830000	1.142823	0.403962	-1.497111
8667.387209	1.001396	0.017308	1.001546	103.863930	7.009131	0.001385	86.047333	86.047333	86.047333	-0.000080	12.921839	2.830000	1.142255	0.403759	-1.483484
8792.236851	0.998632	0.017083	0.998778	103.867979	7.013776	0.001368	86.000452	86.000452	86.000452	0.002120	12.942589	2.830000	1.141487	0.403492	-1.504829
8918.884894	0.997011	0.019012	0.997192	103.869251	7.015717	0.001350	85.871096	85.871096	85.871096	0.003255	12.950265	2.830000	1.141145	0.403380	-1.555348
9047.357242	0.997805	0.021335	0.998033	103.866402	7.013164	0.001330	85.732384	85.732384	85.732384	0.002427	12.937378	2.830000	1.141533	0.403527	-1.605767
9177.680175	1.000355	0.021940	1.000595	103.861454	7.008007	0.001308	85.665920	85.665920	85.665920	0.000336	12.913276	2.830000	1.142361	0.403824	-1.626530
9309.880348	1.002526	0.020106	1.002727	103.858199	7.004324	0.001288	85.693424	85.693424	85.693424	-0.001256	12.896735	2.830000	1.142969	0.404036	-1.613020
9443.984802	1.002465	0.017187	1.002612	103.859011	7.004942	0.001270	85.756142	85.756142	85.756142	-0.000998	12.900137	2.830000	1.142881	0.404001	-1.589904
9580.020968	1.000241	0.015518	1.000361	103.862742	7.009002	0.001254	85.762860	85.762860	85.762860	0.000877	12.918713	2.830000	1.142219	0.403766	-1.590759
9718.016671	0.997874	0.016356	0.998008	103.865576	7.012525	0.001238	85.669831	85.669831	85.669831	0.002683	12.933887	2.830000	1.141623	0.403564	-1.628906
9858.000137	0.997553	0.018668	0.997727	103.864402	7.011884	0.001220	85.524044	85.524044	85.524044	0.002743	12.929564	2.830000	1.141696	0.403601	-1.683543
10000.000000	0.999566	0.020005	0.999767	103.859881	7.007374	0.001201	85.423126	85.423126	85.423126	0.001019	12.908035	2.830000	1.142411	0.403860	-1.717696
10144.045304	1.001935	0.018829	1.002112	103.855967	7.003096	0.001182	85.421400	85.421400	85.421400	-0.000779	12.888511	2.830000	1.143111	0.404107	-1.714489
10290.165513	1.002288	0.016087	1.002417	103.856020	7.002915	0.001165	85.473916	85.473916	85.473916	-0.000856	12.888201	2.830000	1.143152	0.404117	-1.694527
10438.390514	1.000281	0.014353	1.000384	103.859378	7.006566	0.001150	85.478784	85.478784	85.478784	0.000856	12.904905	2.830000	1.142556	0.403907	-1.695945
10588.750628	0.998047	0.015190	0.998162	103.861867	7.009753	0.001135	85.381171	85.381171	85.381171	0.002553	12.918446	2.830000	1.142012	0.403723	-1.735719
10741.276608	0.997999	0.017413	0.998151	103.860129	7.008536	0.001119	85.235092	85.235092	85.235092	0.002396	12.911408	2.830000	1.142178	0.403793	-1.789880
10895.999653	1.000170	0.018288	1.000337	103.855456	7.003832	0.001101	85.148557	85.148557	85.148557	0.000584	12.889069	2.830000	1.142927	0.404065	-1.818139
11052.951411	1.002073	0.016572	1.002210	103.852502	7.000539	0.001084	85.162012	85.162012	85.162012	-0.000795	12.874190	2.830000	1.143470	0.404255	-1.809917
11212.163986	1.001493	0.014024	1.001591	103.853928	7.001916	0.001069	85.198938	85.198938	85.198938	-0.000143	12.880861	2.830000	1.143253	0.404175	-1.797300
11373.669943	0.999148	0.013429	0.999239	103.857188	7.005708	0.001056	85.152630	85.152630	85.152630	0.001751	12.897666	2.830000	1.142621	0.403956	-1.818395
11537.502317	0.997931	0.015224	0.998047	103.857397	7.006622	0.001042	85.015277	85.015277	85.015277	0.002556	12.900352	2.830000	1.142438	0.403904	-1.871239
11703.694619	0.999358	0.016854	0.999500	103.853412	7.002879	0.001026	84.892639	84.892639	84.892639	0.001270	12.881951	2.830000	1.143020	0.404120	-1.913902
11872.280844	1.001561	0.015944	1.001688	103.849504	6.998722	0.001009	84.871529	84.871529	84.871529	-0.000411	12.862753	2.830000	1.143697	0.404360	-1.917675
12043.295474	1.001623	0.013445	1.001713	103.849845	6.998926	0.000995	84.904172	84.904172	84.904172	-0.000263	12.864048	2.830000	1.143671	0.404348	-1.905568
12216.773490	0.999485	0.012476	0.999563	103.852872	7.002414	0.000982	84.868327	84.868327	84.868327	0.001497	12.879559	2.830000	1.143090	0.404146	-1.922621
12392.750375	0.998141	0.014075	0.998240	103.853222	7.003505	0.000969	84.733515	84.733515	84.733515	0.002415	12.883004	2.830000	1.142877	0.404083	-1.974725
12571.262124	0.999489	0.015648	0.999612	103.849238	6.999821	0.000954	84.608542	84.608542	84.608542	0.001192	12.864760	2.830000	1.143448	0.404296	-2.018113
12752.345251	1.001532	0.014613	1.001639	103.845579	6.995949	0.000939	84.587469	84.587469	84.587469	-0.000347	12.846845	2.830000	1.144078	0.404520	-2.021941
12936.036796	1.001211	0.012255	1.001286	103.846406	6.996736	0.000926	84.608424	84.608424	84.608424	0.000098	12.850681	2.830000	1.143955	0.404474	-2.014874
13122.374331	0.999051	0.011899	0.999122	103.849018	6.999938	0.000914	84.543205	84.543205	84.543205	0.001827	12.864521	2.830000	1.143412	0.404289	-2.042937
13311.395971	0.998459	0.013773	0.998554	103.847822	6.999455	0.000901	84.395396	84.395396	84.395396	0.002115	12.860539	2.830000	1.143451	0.404317	-2.098313
13503.140379	1.000361	0.014536	1.000466	103.843260	6.995029	0.000887	84.299735	84.299735	84.299735	0.000524	12.839175	2.830000	1.144151	0.404573	-2.129528
13697.646775	1.001597	0.012648	1.001676	103.841297	6.992873	0.000874	84.304257	84.304257	84.304257	-0.000294	12.829382	2.830000	1.144507	0.404698	-2.125393
13894.954944	1.000100	0.011013	1.000161	103.843497	6.995359	0.000862	84.287109	84.287109	84.287109	0.001023	12.840522	2.830000	1.144093	0.404554	-2.134668
14095.105244	0.998491	0.012129	0.998564	103.844206	6.996863	0.000851	84.160828	84.160828	84.160828	0.002182	12.845799	2.830000	1.143810	0.404467	-2.184122
14298.138616	0.999603	0.013669	0.999696	103.840292	6.993394	0.000838	84.027741	84.027741	84.027741	0.001142	12.828261	2.830000	1.144342	0.404668	-2.230392
14504.096588	1.001386	0.012535	1.001464	103.836935	6.989915	0.000825	84.000935	84.000935	84.000935	-0.000173	12.812026	2.830000	1.144907	0.404869	-2.236397
14713.021288	1.000542	0.010546	1.000598	103.838238	6.991358	0.000814	83.995682	83.995682	83.995682	0.000667	12.818549	2.830000	1.144667	0.404785	-2.240092
14924.955451	0.998711	0.011144	0.998773	103.839451	6.993351	0.000803	83.884086	83.884086	83.884086	0.002044	12.826178	2.830000	1.144306	0.404670	-2.284652
15139.942425	0.999442	0.012801	0.999524	103.835893	6.990379	0.000791	83.740653	83.740653	83.740653	0.001291	12.810685	2.830000	1.144752	0.404842	-2.335245
15358.026185	1.001242	0.011902	1.001313	103.832266	6.986707	0.000779	83.700595	83.700595	83.700595	-0.000055	12.793361	2.830000	1.145345	0.405055	-2.345809
15579.251340	1.000462	0.009981	1.000512	103.833339	6.987944	0.000768	83.688138	83.688138	83.688138	0.000733	12.798847	2.830000	1.145137	0.404983	-2.352056
15803.663140	0.998764	0.010684	0.998821	103.834097	6.989529	0.000758	83.568065	83.568065	83.568065	0.001992	12.804425	2.830000	1.144838	0.404891	-2.399431
16031.307485	0.999742	0.012138	0.999816	103.830092	6.986098	0.000747	83.429252	83.429252	83.429252	0.001059	12.786795	2.830000	1.145360	0.405090	-2.447489
16262.230941	1.001232	0.010861	1.001291	103.827098	6.983074	0.000735	83.398089	83.398089	83.398089	0.000000	12.772525	2.830000	1.145849	0.405266	-2.455309
16496.480741	0.999949	0.009383	0.999993	103.828555	6.984887	0.000725	83.361049	83.361049	83.361049	0.001147	12.780286	2.830000	1.145537	0.405160	-2.471673
16734.104799	0.998839	0.010681	0.998896	103.827777	6.985024	0.000715	83.215245	83.215245	83.215245	0.001876	12.778786	2.830000	1.145467	0.405153	-2.526966
16975.151720	1.000439	0.011368	1.000504	103.823136	6.980775	0.000704	83.104637	83.104637	83.104637	0.000528	12.757730	2.830000	1.146132	0.405399	-2.563002
17219.670809	1.000937	0.009507	1.000983	103.821989	6.979666	0.000694	83.086780	83.086780	83.086780	0.000318	12.752387	2.830000	1.146309	0.405464	-2.568224
17467.712080	0.999175	0.009259	0.999218	103.823172	6.981577	0.000685	82.994172	82.994172	82.994172	0.001718	12.759730	2.830000	1.145962	0.405353	-2.605845
17719.326270	0.999505	0.010830	0.999564	103.819713	6.978947	0.000675	82.839363	82.839363	82.839363	0.001275	12.745333	2.830000	1.146343	0.405505	-2.660667
17974.564843	1.001047	0.009916	1.001096	103.816159	6.975515	0.000664	82.785959	82.785959	82.785959	0.000149	12.728801	2.830000	1.146893	0.405705	-2.675940
18233.480009	0.999862	0.008551	0.999899	103.817130	6.976919	0.000655	82.735279	82.735279	82.735279	0.001214	12.734429	2.830000	1.146642	0.405623	-2.697093
18496.124725	0.999093	0.009915	0.999142	103.815344	6.976139	0.000646	82.579152	82.579152	82.579152	0.001655	12.728383	2.830000	1.146715	0.405668	-2.754965
18762.552716	1.000747	0.009975	1.000797	103.810746	6.971918	0.000636	82.484602	82.484602	82.484602	0.000334	12.707537	2.830000	1.147381	0.405914	-2.784422
19032.818477	1.000313	0.008256	1.000347	103.810708	6.972156	0.000627	82.447102	82.447102	82.447102	0.000855	12.708018	2.830000	1.147327	0.405900	-2.798938
19306.977289	0.999049	0.009147	0.999090	103.809851	6.972330	0.000619	82.302482	82.302482	82.302482	0.001733	12.706429	2.830000	1.147245	0.405890	-2.853850
19585.085230	1.000494	0.009717	1.000542	103.805010	6.968078	0.000609	82.183138	82.183138	82.183138	0.000518	12.684961	2.830000	1.147906	0.406138	-2.892383
19867.199185	1.000463	0.008005	1.000495	103.804225	6.967551	0.000600	82.143021	82.143021	82.143021	0.000728	12.681870	2.830000	1.147978	0.406169	-2.906710
20000.000000	0.999615	0.007916	0.999647	103.804545	6.968289	0.000597	82.091894	82.091894	82.091894	0.001397	12.684378	2.830000	1.147836	0.406126	-2.927180
