Freq (hertz)	Ra (norm)	Xa (norm)	Za (norm)	SPL (dB)	Ze (ohms)	Xd (mm) 	WPhase (deg)	UPhase (deg)	CPhase (deg)	Delay (msec)	Efficiency (%)	Ein (volts)	Pin (watts)	Iin (amps)	ZePhase (deg)

10.000000	0.000642	0.030416	0.030423	76.147686	9.429254	1.981634	122.597457	122.597457	122.597457	8.390331	0.049200	2.830000	0.507567	0.300130	53.303014
10.144045	0.000661	0.030854	0.030861	76.313487	9.540609	1.962875	122.166069	122.166069	122.166069	8.248616	0.052162	2.830000	0.497384	0.296627	53.664698
10.290166	0.000680	0.031298	0.031306	76.478490	9.654834	1.944114	121.735885	121.735885	121.735885	8.108244	0.055302	2.830000	0.487304	0.293117	54.023656
10.438391	0.000700	0.031749	0.031757	76.642704	9.772014	1.925358	121.306958	121.306958	121.306958	7.969250	0.058634	2.830000	0.477329	0.289603	54.379787
10.588751	0.000720	0.032206	0.032214	76.806136	9.892238	1.906611	120.879338	120.879338	120.879338	7.831672	0.062167	2.830000	0.467461	0.286083	54.732993
10.741277	0.000741	0.032669	0.032678	76.968793	10.015600	1.887879	120.453072	120.453072	120.453072	7.695543	0.065916	2.830000	0.457705	0.282559	55.083170
10.896000	0.000763	0.033140	0.033148	77.130685	10.142196	1.869166	120.028208	120.028208	120.028208	7.560895	0.069892	2.830000	0.448061	0.279032	55.430218
11.052951	0.000785	0.033617	0.033626	77.291818	10.272128	1.850478	119.604788	119.604788	119.604788	7.427758	0.074109	2.830000	0.438533	0.275503	55.774033
11.212164	0.000807	0.034100	0.034110	77.452201	10.405501	1.831818	119.182855	119.182855	119.182855	7.296160	0.078584	2.830000	0.429123	0.271972	56.114514
11.373670	0.000831	0.034591	0.034601	77.611842	10.542426	1.813192	118.762450	118.762450	118.762450	7.166127	0.083330	2.830000	0.419833	0.268439	56.451554
11.537502	0.000855	0.035089	0.035099	77.770751	10.683020	1.794604	118.343612	118.343612	118.343612	7.037684	0.088366	2.830000	0.410664	0.264906	56.785049
11.703695	0.000880	0.035594	0.035605	77.928936	10.827402	1.776058	117.926376	117.926376	117.926376	6.910854	0.093708	2.830000	0.401618	0.261374	57.114892
11.872281	0.000905	0.036106	0.036118	78.086405	10.975700	1.757560	117.510778	117.510778	117.510778	6.785656	0.099375	2.830000	0.392698	0.257842	57.440974
12.043295	0.000932	0.036626	0.036638	78.243168	11.128048	1.739113	117.096850	117.096850	117.096850	6.662111	0.105387	2.830000	0.383904	0.254312	57.763185
12.216773	0.000959	0.037153	0.037165	78.399234	11.284583	1.720722	116.684623	116.684623	116.684623	6.540234	0.111766	2.830000	0.375239	0.250785	58.081412
12.392750	0.000986	0.037687	0.037700	78.554611	11.445454	1.702391	116.274125	116.274125	116.274125	6.420041	0.118534	2.830000	0.366703	0.247260	58.395542
12.571262	0.001015	0.038230	0.038243	78.709310	11.610814	1.684123	115.865383	115.865383	115.865383	6.301545	0.125713	2.830000	0.358297	0.243738	58.705456
12.752345	0.001044	0.038780	0.038794	78.863338	11.780825	1.665924	115.458422	115.458422	115.458422	6.184758	0.133331	2.830000	0.350024	0.240221	59.011035
12.936037	0.001075	0.039338	0.039352	79.016706	11.955656	1.647796	115.053265	115.053265	115.053265	6.069690	0.141413	2.830000	0.341882	0.236708	59.312157
13.122374	0.001106	0.039904	0.039919	79.169423	12.135487	1.629743	114.649932	114.649932	114.649932	5.956349	0.149987	2.830000	0.333874	0.233200	59.608693
13.311396	0.001138	0.040478	0.040494	79.321497	12.320507	1.611769	114.248442	114.248442	114.248442	5.844742	0.159084	2.830000	0.326000	0.229698	59.900514
13.503140	0.001171	0.041060	0.041077	79.472939	12.510913	1.593877	113.848813	113.848813	113.848813	5.734873	0.168735	2.830000	0.318261	0.226203	60.187484
13.697647	0.001205	0.041651	0.041668	79.623759	12.706917	1.576072	113.451059	113.451059	113.451059	5.626747	0.178974	2.830000	0.310656	0.222713	60.469465
13.894955	0.001240	0.042250	0.042268	79.773964	12.908739	1.558355	113.055193	113.055193	113.055193	5.520364	0.189836	2.830000	0.303188	0.219231	60.746310
14.095105	0.001276	0.042858	0.042877	79.923565	13.116614	1.540731	112.661227	112.661227	112.661227	5.415726	0.201360	2.830000	0.295854	0.215757	61.017868
14.298139	0.001313	0.043474	0.043494	80.072571	13.330788	1.523201	112.269170	112.269170	112.269170	5.312831	0.213584	2.830000	0.288657	0.212291	61.283983
14.504097	0.001351	0.044100	0.044120	80.220991	13.551523	1.505770	111.879030	111.879030	111.879030	5.211678	0.226552	2.830000	0.281596	0.208833	61.544490
14.713021	0.001390	0.044734	0.044756	80.368836	13.779097	1.488440	111.490812	111.490812	111.490812	5.112262	0.240307	2.830000	0.274670	0.205384	61.799217
14.924955	0.001430	0.045377	0.045400	80.516113	14.013804	1.471214	111.104521	111.104521	111.104521	5.014579	0.254897	2.830000	0.267881	0.201944	62.047982
15.139942	0.001472	0.046030	0.046054	80.662832	14.255955	1.454094	110.720158	110.720158	110.720158	4.918621	0.270371	2.830000	0.261227	0.198514	62.290597
15.358026	0.001515	0.046692	0.046717	80.809003	14.505881	1.437083	110.337724	110.337724	110.337724	4.824383	0.286782	2.830000	0.254708	0.195093	62.526860
15.579251	0.001559	0.047363	0.047389	80.954635	14.763934	1.420183	109.957218	109.957218	109.957218	4.731856	0.304185	2.830000	0.248325	0.191683	62.756559
15.803663	0.001604	0.048045	0.048071	81.099736	15.030488	1.403396	109.578636	109.578636	109.578636	4.641030	0.322639	2.830000	0.242076	0.188284	62.979472
16.031307	0.001650	0.048735	0.048763	81.244317	15.305941	1.386724	109.201975	109.201975	109.201975	4.551894	0.342204	2.830000	0.235961	0.184896	63.195360
16.262231	0.001698	0.049436	0.049465	81.388384	15.590719	1.370171	108.827228	108.827228	108.827228	4.464436	0.362946	2.830000	0.229981	0.181518	63.403971
16.496481	0.001747	0.050147	0.050177	81.531949	15.885272	1.353736	108.454388	108.454388	108.454388	4.378646	0.384932	2.830000	0.224133	0.178152	63.605036
16.734105	0.001798	0.050868	0.050900	81.675018	16.190086	1.337423	108.083444	108.083444	108.083444	4.294508	0.408234	2.830000	0.218417	0.174798	63.798270
16.975152	0.001850	0.051599	0.051632	81.817602	16.505675	1.321233	107.714387	107.714387	107.714387	4.212010	0.432927	2.830000	0.212833	0.171456	63.983366
17.219671	0.001904	0.052341	0.052376	81.959708	16.832594	1.305168	107.347204	107.347204	107.347204	4.131135	0.459089	2.830000	0.207381	0.168126	64.159997
17.467712	0.001959	0.053093	0.053129	82.101345	17.171434	1.289228	106.981881	106.981881	106.981881	4.051869	0.486802	2.830000	0.202058	0.164809	64.327813
17.719326	0.002016	0.053856	0.053894	82.242522	17.522830	1.273416	106.618402	106.618402	106.618402	3.974195	0.516153	2.830000	0.196865	0.161504	64.486435
17.974565	0.002074	0.054631	0.054670	82.383246	17.887462	1.257733	106.256753	106.256753	106.256753	3.898096	0.547230	2.830000	0.191800	0.158211	64.635460
18.233480	0.002134	0.055416	0.055457	82.523526	18.266063	1.242180	105.896914	105.896914	105.896914	3.823554	0.580127	2.830000	0.186863	0.154932	64.774451
18.496125	0.002196	0.056212	0.056255	82.663370	18.659420	1.226758	105.538866	105.538866	105.538866	3.750552	0.614942	2.830000	0.182053	0.151666	64.902936
18.762553	0.002260	0.057020	0.057065	82.802786	19.068381	1.211468	105.182589	105.182589	105.182589	3.679071	0.651775	2.830000	0.177368	0.148413	65.020406
19.032818	0.002326	0.057839	0.057886	82.941781	19.493861	1.196311	104.828062	104.828062	104.828062	3.609092	0.690730	2.830000	0.172808	0.145174	65.126310
19.306977	0.002393	0.058670	0.058719	83.080363	19.936846	1.181288	104.475260	104.475260	104.475260	3.540595	0.731916	2.830000	0.168372	0.141948	65.220049
19.585085	0.002462	0.059513	0.059564	83.218540	20.398404	1.166399	104.124161	104.124161	104.124161	3.473560	0.775443	2.830000	0.164059	0.138736	65.300975
19.867199	0.002534	0.060368	0.060421	83.356319	20.879690	1.151646	103.774739	103.774739	103.774739	3.407968	0.821425	2.830000	0.159867	0.135538	65.368380
20.153377	0.002607	0.061235	0.061291	83.493708	21.381956	1.137028	103.426967	103.426967	103.426967	3.343797	0.869980	2.830000	0.155796	0.132355	65.421495
20.443677	0.002683	0.062115	0.062173	83.630713	21.906562	1.122547	103.080818	103.080818	103.080818	3.281028	0.921227	2.830000	0.151844	0.129185	65.459477
20.738158	0.002761	0.063007	0.063067	83.767341	22.454983	1.108203	102.736264	102.736264	102.736264	3.219639	0.975287	2.830000	0.148012	0.126030	65.481408
21.036882	0.002841	0.063912	0.063975	83.903600	23.028828	1.093996	102.393274	102.393274	102.393274	3.159608	1.032282	2.830000	0.144297	0.122889	65.486279
21.339908	0.002923	0.064830	0.064895	84.039496	23.629847	1.079926	102.051820	102.051820	102.051820	3.100916	1.092335	2.830000	0.140698	0.119764	65.472984
21.647300	0.003008	0.065760	0.065829	84.175035	24.259953	1.065994	101.711868	101.711868	101.711868	3.043539	1.155571	2.830000	0.137215	0.116653	65.440308
21.959119	0.003095	0.066705	0.066776	84.310225	24.921234	1.052200	101.373387	101.373387	101.373387	2.987457	1.222111	2.830000	0.133846	0.113558	65.386909
22.275430	0.003184	0.067662	0.067737	84.445070	25.615979	1.038544	101.036343	101.036343	101.036343	2.932648	1.292075	2.830000	0.130591	0.110478	65.311308
22.596297	0.003277	0.068633	0.068712	84.579578	26.346693	1.025025	100.700703	100.700703	100.700703	2.879090	1.365582	2.830000	0.127448	0.107414	65.211869
22.921786	0.003372	0.069618	0.069700	84.713755	27.116128	1.011644	100.366431	100.366431	100.366431	2.826762	1.442746	2.830000	0.124417	0.104366	65.086777
23.251963	0.003469	0.070618	0.070703	84.847605	27.927308	0.998401	100.033492	100.033492	100.033492	2.775641	1.523673	2.830000	0.121496	0.101335	64.934018
23.586897	0.003570	0.071631	0.071720	84.981135	28.783563	0.985296	99.701849	99.701849	99.701849	2.725707	1.608467	2.830000	0.118685	0.098320	64.751349
23.926655	0.003673	0.072659	0.072752	85.114351	29.688560	0.972327	99.371465	99.371465	99.371465	2.676936	1.697220	2.830000	0.115982	0.095323	64.536267
24.271307	0.003780	0.073701	0.073798	85.247257	30.646349	0.959496	99.042301	99.042301	99.042301	2.629309	1.790015	2.830000	0.113387	0.092344	64.285974
24.620924	0.003889	0.074758	0.074860	85.379859	31.661399	0.946801	98.714319	98.714319	98.714319	2.582802	1.886923	2.830000	0.110899	0.089383	63.997332
24.975577	0.004002	0.075831	0.075936	85.512162	32.738654	0.934243	98.387480	98.387480	98.387480	2.537396	1.988000	2.830000	0.108516	0.086442	63.666819
25.335338	0.004118	0.076918	0.077028	85.644171	33.883580	0.921820	98.061743	98.061743	98.061743	2.493067	2.093290	2.830000	0.106239	0.083521	63.290463
25.700282	0.004238	0.078021	0.078136	85.775890	35.102227	0.909533	97.737068	97.737068	97.737068	2.449796	2.202815	2.830000	0.104065	0.080622	62.863785
26.070482	0.004360	0.079140	0.079260	85.907325	36.401287	0.897381	97.413413	97.413413	97.413413	2.407562	2.316579	2.830000	0.101995	0.077745	62.381711
26.446016	0.004487	0.080274	0.080400	86.038479	37.788158	0.885363	97.090737	97.090737	97.090737	2.366343	2.434564	2.830000	0.100028	0.074891	61.838488
26.826958	0.004617	0.081425	0.081556	86.169358	39.271006	0.873479	96.768997	96.768997	96.768997	2.326118	2.556729	2.830000	0.098162	0.072063	61.227573
27.213388	0.004750	0.082592	0.082729	86.299964	40.858822	0.861728	96.448150	96.448150	96.448150	2.286868	2.683005	2.830000	0.096398	0.069263	60.541509
27.605384	0.004888	0.083776	0.083918	86.430302	42.561464	0.850109	96.128153	96.128153	96.128153	2.248571	2.813299	2.830000	0.094735	0.066492	59.771783
28.003026	0.005030	0.084976	0.085125	86.560377	44.389681	0.838622	95.808961	95.808961	95.808961	2.211208	2.947485	2.830000	0.093171	0.063754	58.908654
28.406397	0.005175	0.086193	0.086348	86.690191	46.355081	0.827266	95.490529	95.490529	95.490529	2.174760	3.085411	2.830000	0.091707	0.061050	57.940970
28.815578	0.005325	0.087428	0.087590	86.819748	48.470048	0.816040	95.172814	95.172814	95.172814	2.139205	3.226890	2.830000	0.090341	0.058387	56.855945
29.230652	0.005479	0.088680	0.088849	86.949052	50.747532	0.804944	94.855769	94.855769	94.855769	2.104525	3.371706	2.830000	0.089074	0.055766	55.638929
29.651706	0.005638	0.089950	0.090126	87.078105	53.200681	0.793976	94.539349	94.539349	94.539349	2.070701	3.519611	2.830000	0.087904	0.053195	54.273158
30.078825	0.005801	0.091237	0.091422	87.206911	55.842218	0.783136	94.223507	94.223507	94.223507	2.037714	3.670323	2.830000	0.086832	0.050679	52.739500
30.512097	0.005969	0.092543	0.092735	87.335473	58.683447	0.772423	93.908196	93.908196	93.908196	2.005545	3.823531	2.830000	0.085857	0.048225	51.016238
30.951609	0.006142	0.093868	0.094068	87.463793	61.732726	0.761836	93.593369	93.593369	93.593369	1.974175	3.978896	2.830000	0.084979	0.045843	49.078928
31.397452	0.006320	0.095211	0.095420	87.591875	64.993211	0.751374	93.278980	93.278980	93.278980	1.943587	4.136048	2.830000	0.084197	0.043543	46.900415
31.849718	0.006503	0.096573	0.096791	87.719720	68.459632	0.741036	92.964979	92.964979	92.964979	1.913762	4.294596	2.830000	0.083511	0.041338	44.451129
32.308498	0.006691	0.097954	0.098182	87.847331	72.113881	0.730821	92.651319	92.651319	92.651319	1.884683	4.454124	2.830000	0.082921	0.039243	41.699850
32.773887	0.006885	0.099354	0.099593	87.974710	75.919307	0.720729	92.337951	92.337951	92.337951	1.856333	4.614198	2.830000	0.082427	0.037276	38.615178
33.245979	0.007084	0.100775	0.101023	88.101859	79.813956	0.710757	92.024827	92.024827	92.024827	1.828694	4.774372	2.830000	0.082028	0.035457	35.168012
33.724872	0.007289	0.102215	0.102475	88.228781	83.703633	0.700906	91.711897	91.711897	91.711897	1.801750	4.934187	2.830000	0.081725	0.033810	31.335322
34.210663	0.007500	0.103676	0.103947	88.355475	87.456709	0.691175	91.399112	91.399112	91.399112	1.775484	5.093180	2.830000	0.081518	0.032359	27.105338
34.703452	0.007717	0.105157	0.105440	88.481945	90.903915	0.681561	91.086422	91.086422	91.086422	1.749879	5.250887	2.830000	0.081406	0.031132	22.483876
35.203338	0.007941	0.106659	0.106954	88.608192	93.847137	0.672064	90.773777	90.773777	90.773777	1.724921	5.406849	2.830000	0.081390	0.030155	17.500826
35.710426	0.008171	0.108182	0.108490	88.734217	96.080350	0.662684	90.461126	90.461126	90.461126	1.700593	5.560615	2.830000	0.081469	0.029455	12.214912
36.224818	0.008407	0.109726	0.110048	88.860020	97.421931	0.653419	90.148420	90.148420	90.148420	1.676879	5.711749	2.830000	0.081645	0.029049	6.714329
36.746619	0.008650	0.111292	0.111628	88.985604	97.751156	0.644267	89.835607	89.835607	89.835607	1.653765	5.859836	2.830000	0.081916	0.028951	1.111308
37.275937	0.008900	0.112880	0.113231	89.110968	97.036354	0.635229	89.522637	89.522637	89.522637	1.631236	6.004481	2.830000	0.082284	0.029164	-4.469464
37.812880	0.009158	0.114490	0.114856	89.236114	95.342813	0.626302	89.209457	89.209457	89.209457	1.609277	6.145318	2.830000	0.082749	0.029682	-9.905977
38.357556	0.009423	0.116123	0.116505	89.361042	92.816821	0.617486	88.896018	88.896018	88.896018	1.587873	6.282009	2.830000	0.083311	0.030490	-15.093249
38.910079	0.009695	0.117779	0.118177	89.485752	89.653024	0.608780	88.582266	88.582266	88.582266	1.567012	6.414254	2.830000	0.083970	0.031566	-19.952941
39.470560	0.009976	0.119457	0.119873	89.610244	86.058119	0.600182	88.268151	88.268151	88.268151	1.546678	6.541783	2.830000	0.084727	0.032885	-24.436584
40.039115	0.010264	0.121159	0.121593	89.734519	82.222036	0.591691	87.953620	87.953620	87.953620	1.526858	6.664366	2.830000	0.085583	0.034419	-28.523243
40.615860	0.010561	0.122885	0.123338	89.858577	78.301423	0.583307	87.638621	87.638621	87.638621	1.507540	6.781811	2.830000	0.086538	0.036142	-32.213904
41.200912	0.010866	0.124634	0.125107	89.982416	74.414458	0.575028	87.323102	87.323102	87.323102	1.488709	6.893963	2.830000	0.087593	0.038030	-35.524878
41.794392	0.011180	0.126408	0.126902	90.106038	70.643260	0.566854	87.007010	87.007010	87.007010	1.470354	7.000707	2.830000	0.088748	0.040060	-38.481794
42.396421	0.011504	0.128207	0.128722	90.229440	67.040013	0.558782	86.690292	86.690292	86.690292	1.452462	7.101962	2.830000	0.090004	0.042214	-41.114894
43.007121	0.011836	0.130030	0.130568	90.352623	63.634022	0.550812	86.372896	86.372896	86.372896	1.435020	7.197685	2.830000	0.091362	0.044473	-43.455732
43.626619	0.012178	0.131879	0.132440	90.475586	60.438178	0.542943	86.054768	86.054768	86.054768	1.418017	7.287866	2.830000	0.092822	0.046825	-45.535079
44.255040	0.012530	0.133753	0.134339	90.598327	57.454225	0.535173	85.735856	85.735856	85.735856	1.401441	7.372529	2.830000	0.094387	0.049257	-47.381724
44.892513	0.012892	0.135654	0.136265	90.720846	54.676743	0.527502	85.416106	85.416106	85.416106	1.385279	7.451725	2.830000	0.096055	0.051759	-49.021899
45.539168	0.013264	0.137580	0.138218	90.843140	52.096008	0.519929	85.095465	85.095465	85.095465	1.369522	7.525533	2.830000	0.097830	0.054323	-50.479091
46.195138	0.013648	0.139533	0.140199	90.965210	49.699971	0.512452	84.773880	84.773880	84.773880	1.354158	7.594057	2.830000	0.099711	0.056942	-51.774097
46.860558	0.014042	0.141513	0.142208	91.087051	47.475576	0.505070	84.451297	84.451297	84.451297	1.339176	7.657420	2.830000	0.101699	0.059610	-52.925199
47.535562	0.014447	0.143520	0.144245	91.208664	45.409605	0.497782	84.127663	84.127663	84.127663	1.324565	7.715767	2.830000	0.103796	0.062322	-53.948394
48.220290	0.014864	0.145555	0.146312	91.330046	43.489205	0.490588	83.802923	83.802923	83.802923	1.310316	7.769256	2.830000	0.106003	0.065074	-54.857651
48.914880	0.015293	0.147617	0.148407	91.451195	41.702188	0.483485	83.477025	83.477025	83.477025	1.296418	7.818059	2.830000	0.108322	0.067862	-55.665157
49.619476	0.015735	0.149708	0.150532	91.572109	40.037187	0.476473	83.149914	83.149914	83.149914	1.282860	7.862359	2.830000	0.110752	0.070684	-56.381543
50.334221	0.016189	0.151827	0.152688	91.692784	38.483723	0.469552	82.821536	82.821536	82.821536	1.269634	7.902347	2.830000	0.113297	0.073538	-57.016094
51.059262	0.016656	0.153975	0.154873	91.813219	37.032206	0.462719	82.491838	82.491838	82.491838	1.256730	7.938219	2.830000	0.115956	0.076420	-57.576928
51.794747	0.017137	0.156153	0.157090	91.933410	35.673909	0.455973	82.160766	82.160766	82.160766	1.244139	7.970175	2.830000	0.118732	0.079330	-58.071159
52.540826	0.017631	0.158360	0.159338	92.053355	34.400912	0.449314	81.828266	81.828266	81.828266	1.231851	7.998417	2.830000	0.121626	0.082265	-58.505028
53.297652	0.018139	0.160596	0.161618	92.173050	33.206049	0.442741	81.494284	81.494284	81.494284	1.219857	8.023146	2.830000	0.124639	0.085225	-58.884029
54.065379	0.018662	0.162864	0.163929	92.292492	32.082838	0.436253	81.158766	81.158766	81.158766	1.208149	8.044565	2.830000	0.127774	0.088209	-59.213004
54.844166	0.019200	0.165162	0.166274	92.411678	31.025425	0.429848	80.821659	80.821659	80.821659	1.196719	8.062870	2.830000	0.131031	0.091216	-59.496232
55.634170	0.019754	0.167491	0.168651	92.530603	30.028516	0.423525	80.482908	80.482908	80.482908	1.185557	8.078256	2.830000	0.134412	0.094244	-59.737505
56.435554	0.020323	0.169851	0.171062	92.649265	29.087327	0.417284	80.142459	80.142459	80.142459	1.174656	8.090912	2.830000	0.137919	0.097293	-59.940188
57.248482	0.020909	0.172243	0.173507	92.767658	28.197529	0.411123	79.800260	79.800260	79.800260	1.164007	8.101022	2.830000	0.141553	0.100363	-60.107278
58.073119	0.021511	0.174667	0.175986	92.885779	27.355203	0.405042	79.456256	79.456256	79.456256	1.153604	8.108764	2.830000	0.145317	0.103454	-60.241445
58.909635	0.022131	0.177123	0.178501	93.003623	26.556793	0.399039	79.110393	79.110393	79.110393	1.143438	8.114310	2.830000	0.149212	0.106564	-60.345079
59.758201	0.022768	0.179613	0.181050	93.121186	25.799075	0.393113	78.762619	78.762619	78.762619	1.133501	8.117823	2.830000	0.153240	0.109694	-60.420317
60.618990	0.023423	0.182135	0.183635	93.238462	25.079117	0.387264	78.412880	78.412880	78.412880	1.123787	8.119460	2.830000	0.157403	0.112843	-60.469082
61.492178	0.024097	0.184691	0.186256	93.355447	24.394251	0.381491	78.061123	78.061123	78.061123	1.114287	8.119372	2.830000	0.161702	0.116011	-60.493098
62.377944	0.024791	0.187281	0.188915	93.472136	23.742044	0.375791	77.707294	77.707294	77.707294	1.104996	8.117700	2.830000	0.166140	0.119198	-60.493922
63.276469	0.025504	0.189905	0.191610	93.588523	23.120278	0.370166	77.351341	77.351341	77.351341	1.095907	8.114578	2.830000	0.170719	0.122403	-60.472958
64.187937	0.026238	0.192564	0.194343	93.704603	22.526924	0.364613	76.993212	76.993212	76.993212	1.087011	8.110135	2.830000	0.175439	0.125627	-60.431476
65.112534	0.026992	0.195257	0.197114	93.820369	21.960126	0.359132	76.632852	76.632852	76.632852	1.078304	8.104490	2.830000	0.180304	0.128870	-60.370626
66.050449	0.027768	0.197986	0.199924	93.935817	21.418181	0.353721	76.270212	76.270212	76.270212	1.069778	8.097757	2.830000	0.185315	0.132131	-60.291450
67.001875	0.028566	0.200751	0.202773	94.050939	20.899528	0.348380	75.905237	75.905237	75.905237	1.061427	8.090040	2.830000	0.190475	0.135410	-60.194897
67.967006	0.029387	0.203551	0.205662	94.165729	20.402730	0.343108	75.537877	75.537877	75.537877	1.053246	8.081440	2.830000	0.195785	0.138707	-60.081829
68.946038	0.030231	0.206388	0.208591	94.280181	19.926467	0.337904	75.168080	75.168080	75.168080	1.045227	8.072049	2.830000	0.201247	0.142022	-59.953030
69.939174	0.031099	0.209262	0.211560	94.394288	19.469519	0.332767	74.795795	74.795795	74.795795	1.037365	8.061954	2.830000	0.206863	0.145355	-59.809216
70.946615	0.031991	0.212173	0.214571	94.508042	19.030762	0.327697	74.420971	74.420971	74.420971	1.029654	8.051235	2.830000	0.212636	0.148707	-59.651042
71.968567	0.032909	0.215121	0.217624	94.621437	18.609159	0.322691	74.043558	74.043558	74.043558	1.022089	8.039968	2.830000	0.218567	0.152076	-59.479105
73.005241	0.033853	0.218107	0.220719	94.734466	18.203746	0.317751	73.663505	73.663505	73.663505	1.014663	8.028222	2.830000	0.224658	0.155463	-59.293952
74.056847	0.034824	0.221132	0.223857	94.847119	17.813635	0.312873	73.280763	73.280763	73.280763	1.007373	8.016062	2.830000	0.230911	0.158867	-59.096084
75.123601	0.035822	0.224194	0.227038	94.959391	17.437998	0.308059	72.895283	72.895283	72.895283	1.000211	8.003547	2.830000	0.237329	0.162289	-58.885961
76.205721	0.036849	0.227296	0.230263	95.071272	17.076069	0.303306	72.507016	72.507016	72.507016	0.993173	7.990732	2.830000	0.243913	0.165729	-58.664004
77.303429	0.037904	0.230436	0.233533	95.182753	16.727134	0.298615	72.115913	72.115913	72.115913	0.986254	7.977669	2.830000	0.250665	0.169186	-58.430600
78.416948	0.038990	0.233617	0.236848	95.293828	16.390530	0.293984	71.721928	71.721928	71.721928	0.979449	7.964403	2.830000	0.257587	0.172661	-58.186105
79.546508	0.040106	0.236836	0.240208	95.404485	16.065638	0.289412	71.325012	71.325012	71.325012	0.972752	7.950978	2.830000	0.264681	0.176152	-57.930846
80.692338	0.041253	0.240096	0.243615	95.514718	15.751881	0.284900	70.925119	70.925119	70.925119	0.966159	7.937434	2.830000	0.271948	0.179661	-57.665126
81.854673	0.042433	0.243397	0.247068	95.624516	15.448721	0.280445	70.522204	70.522204	70.522204	0.959666	7.923806	2.830000	0.279391	0.183187	-57.389221
83.033751	0.043646	0.246738	0.250568	95.733869	15.155654	0.276047	70.116221	70.116221	70.116221	0.953268	7.910127	2.830000	0.287011	0.186729	-57.103388
84.229813	0.044893	0.250120	0.254117	95.842769	14.872209	0.271706	69.707125	69.707125	69.707125	0.946959	7.896428	2.830000	0.294809	0.190288	-56.807862
85.443104	0.046176	0.253543	0.257714	95.951205	14.597945	0.267420	69.294874	69.294874	69.294874	0.940736	7.882735	2.830000	0.302787	0.193863	-56.502861
86.673872	0.047494	0.257008	0.261359	96.059166	14.332448	0.263189	68.879422	68.879422	68.879422	0.934595	7.869074	2.830000	0.310948	0.197454	-56.188587
87.922369	0.048849	0.260515	0.265055	96.166643	14.075331	0.259013	68.460730	68.460730	68.460730	0.928530	7.855467	2.830000	0.319291	0.201061	-55.865225
89.188849	0.050242	0.264063	0.268801	96.273624	13.826229	0.254889	68.038754	68.038754	68.038754	0.922539	7.841934	2.830000	0.327819	0.204683	-55.532947
90.473572	0.051675	0.267654	0.272597	96.380099	13.584800	0.250819	67.613455	67.613455	67.613455	0.916616	7.828494	2.830000	0.336532	0.208321	-55.191912
91.776802	0.053147	0.271288	0.276445	96.486056	13.350722	0.246801	67.184793	67.184793	67.184793	0.910757	7.815163	2.830000	0.345431	0.211974	-54.842267
93.098803	0.054661	0.274965	0.280345	96.591484	13.123691	0.242834	66.752730	66.752730	66.752730	0.904960	7.801956	2.830000	0.354519	0.215641	-54.484149
94.439848	0.056217	0.278684	0.284298	96.696371	12.903422	0.238918	66.317229	66.317229	66.317229	0.899220	7.788885	2.830000	0.363795	0.219322	-54.117684
95.800210	0.057816	0.282447	0.288303	96.800706	12.689646	0.235051	65.878252	65.878252	65.878252	0.893532	7.775963	2.830000	0.373259	0.223016	-53.742990
97.180167	0.059459	0.286253	0.292363	96.904475	12.482109	0.231235	65.435764	65.435764	65.435764	0.887895	7.763199	2.830000	0.382914	0.226725	-53.360176
98.580001	0.061149	0.290102	0.296477	97.007667	12.280570	0.227467	64.989732	64.989732	64.989732	0.882303	7.750603	2.830000	0.392758	0.230445	-52.969343
100.000000	0.062885	0.293995	0.300646	97.110268	12.084804	0.223747	64.540123	64.540123	64.540123	0.876753	7.738182	2.830000	0.402793	0.234178	-52.570586
101.440453	0.064670	0.297932	0.304870	97.212266	11.894595	0.220074	64.086905	64.086905	64.086905	0.871242	7.725944	2.830000	0.413018	0.237923	-52.163993
102.901655	0.066504	0.301913	0.309151	97.313648	11.709740	0.216448	63.630048	63.630048	63.630048	0.865767	7.713893	2.830000	0.423434	0.241679	-51.749646
104.383905	0.068388	0.305938	0.313489	97.414400	11.530048	0.212869	63.169524	63.169524	63.169524	0.860324	7.702035	2.830000	0.434039	0.245446	-51.327623
105.887506	0.070325	0.310007	0.317884	97.514508	11.355337	0.209335	62.705304	62.705304	62.705304	0.854909	7.690373	2.830000	0.444834	0.249222	-50.897996
107.412766	0.072315	0.314121	0.322337	97.613958	11.185434	0.205847	62.237363	62.237363	62.237363	0.849520	7.678912	2.830000	0.455817	0.253008	-50.460833
108.959997	0.074360	0.318278	0.326849	97.712736	11.020176	0.202403	61.765677	61.765677	61.765677	0.844154	7.667653	2.830000	0.466988	0.256802	-50.016199
110.529514	0.076461	0.322479	0.331420	97.810828	10.859406	0.199003	61.290222	61.290222	61.290222	0.838807	7.656599	2.830000	0.478345	0.260604	-49.564153
112.121640	0.078620	0.326725	0.336051	97.908218	10.702978	0.195646	60.810979	60.810979	60.810979	0.833477	7.645751	2.830000	0.489887	0.264412	-49.104754
113.736699	0.080839	0.331015	0.340743	98.004893	10.550751	0.192332	60.327927	60.327927	60.327927	0.828161	7.635109	2.830000	0.501613	0.268227	-48.638057
115.375023	0.083117	0.335348	0.345495	98.100836	10.402593	0.189061	59.841050	59.841050	59.841050	0.822855	7.624674	2.830000	0.513519	0.272048	-48.164113
117.036946	0.085458	0.339726	0.350310	98.196032	10.258375	0.185831	59.350331	59.350331	59.350331	0.817557	7.614446	2.830000	0.525605	0.275872	-47.682974
118.722808	0.087863	0.344147	0.355187	98.290466	10.117978	0.182643	58.855757	58.855757	58.855757	0.812265	7.604425	2.830000	0.537867	0.279700	-47.194688
120.432955	0.090334	0.348612	0.360126	98.384121	9.981287	0.179495	58.357316	58.357316	58.357316	0.806976	7.594609	2.830000	0.550302	0.283531	-46.699302
122.167735	0.092871	0.353121	0.365129	98.476982	9.848191	0.176388	57.854998	57.854998	57.854998	0.801687	7.584997	2.830000	0.562908	0.287362	-46.196862
123.927504	0.095477	0.357672	0.370196	98.569032	9.718587	0.173321	57.348796	57.348796	57.348796	0.796395	7.575588	2.830000	0.575680	0.291195	-45.687413
125.712621	0.098154	0.362266	0.375328	98.660255	9.592376	0.170293	56.838704	56.838704	56.838704	0.791100	7.566381	2.830000	0.588615	0.295026	-45.170999
127.523453	0.100903	0.366903	0.380525	98.750634	9.469461	0.167304	56.324719	56.324719	56.324719	0.785797	7.557372	2.830000	0.601710	0.298855	-44.647663
129.360368	0.103726	0.371582	0.385788	98.840151	9.349753	0.164354	55.806840	55.806840	55.806840	0.780485	7.548560	2.830000	0.614958	0.302682	-44.117450
131.223743	0.106625	0.376303	0.391117	98.928790	9.233165	0.161441	55.285067	55.285067	55.285067	0.775162	7.539943	2.830000	0.628355	0.306504	-43.580402
133.113960	0.109601	0.381065	0.396513	99.016534	9.119614	0.158567	54.759406	54.759406	54.759406	0.769825	7.531517	2.830000	0.641897	0.310320	-43.036564
135.031404	0.112657	0.385867	0.401977	99.103364	9.009022	0.155729	54.229862	54.229862	54.229862	0.764474	7.523281	2.830000	0.655577	0.314130	-42.485978
136.976468	0.115795	0.390710	0.407508	99.189263	8.901312	0.152929	53.696443	53.696443	53.696443	0.759104	7.515231	2.830000	0.669389	0.317931	-41.928689
138.949549	0.119016	0.395592	0.413108	99.274214	8.796413	0.150164	53.159161	53.159161	53.159161	0.753716	7.507364	2.830000	0.683327	0.321722	-41.364742
140.951052	0.122323	0.400514	0.418777	99.358198	8.694255	0.147436	52.618030	52.618030	52.618030	0.748307	7.499678	2.830000	0.697383	0.325502	-40.794184
142.981386	0.125717	0.405473	0.424515	99.441197	8.594773	0.144744	52.073065	52.073065	52.073065	0.742876	7.492168	2.830000	0.711552	0.329270	-40.217061
145.040966	0.129201	0.410470	0.430324	99.523192	8.497902	0.142087	51.524287	51.524287	51.524287	0.737420	7.484832	2.830000	0.725824	0.333023	-39.633421
147.130213	0.132776	0.415504	0.436203	99.604166	8.403583	0.139464	50.971716	50.971716	50.971716	0.731939	7.477666	2.830000	0.740193	0.336761	-39.043314
149.249555	0.136445	0.420573	0.442152	99.684099	8.311757	0.136877	50.415378	50.415378	50.415378	0.726431	7.470667	2.830000	0.754649	0.340482	-38.446791
151.399424	0.140210	0.425676	0.448173	99.762974	8.222369	0.134323	49.855301	49.855301	49.855301	0.720894	7.463832	2.830000	0.769183	0.344183	-37.843904
153.580262	0.144073	0.430814	0.454266	99.840770	8.135364	0.131804	49.291513	49.291513	49.291513	0.715328	7.457157	2.830000	0.783787	0.347864	-37.234709
155.792513	0.148036	0.435984	0.460431	99.917470	8.050693	0.129318	48.724050	48.724050	48.724050	0.709732	7.450638	2.830000	0.798450	0.351523	-36.619260
158.036631	0.152102	0.441185	0.466668	99.993055	7.968306	0.126866	48.152947	48.152947	48.152947	0.704103	7.444271	2.830000	0.813163	0.355157	-35.997616
160.313075	0.156273	0.446416	0.472979	100.067504	7.888156	0.124446	47.578244	47.578244	47.578244	0.698442	7.438054	2.830000	0.827914	0.358766	-35.369838
162.622309	0.160551	0.451676	0.479362	100.140801	7.810198	0.122059	46.999982	46.999982	46.999982	0.692748	7.431983	2.830000	0.842694	0.362347	-34.735989
164.964807	0.164939	0.456963	0.485819	100.212924	7.734388	0.119705	46.418207	46.418207	46.418207	0.687019	7.426053	2.830000	0.857489	0.365898	-34.096132
167.341048	0.169438	0.462276	0.492349	100.283856	7.660685	0.117382	45.832968	45.832968	45.832968	0.681255	7.420261	2.830000	0.872290	0.369419	-33.450336
169.751517	0.174051	0.467612	0.498954	100.353577	7.589049	0.115092	45.244316	45.244316	45.244316	0.675456	7.414604	2.830000	0.887083	0.372906	-32.798670
172.196708	0.178781	0.472971	0.505633	100.422069	7.519442	0.112833	44.652304	44.652304	44.652304	0.669621	7.409077	2.830000	0.901856	0.376358	-32.141206
174.677121	0.183630	0.478351	0.512386	100.489311	7.451826	0.110605	44.056992	44.056992	44.056992	0.663750	7.403678	2.830000	0.916596	0.379773	-31.478020
177.193263	0.188601	0.483749	0.519214	100.555286	7.386167	0.108408	43.458439	43.458439	43.458439	0.657843	7.398402	2.830000	0.931290	0.383149	-30.809188
179.745648	0.193695	0.489164	0.526117	100.619975	7.322431	0.106242	42.856709	42.856709	42.856709	0.651899	7.393245	2.830000	0.945925	0.386484	-30.134793
182.334800	0.198916	0.494592	0.533094	100.683358	7.260584	0.104107	42.251869	42.251869	42.251869	0.645918	7.388204	2.830000	0.960487	0.389776	-29.454916
184.961247	0.204265	0.500033	0.540146	100.745416	7.200595	0.102002	41.643988	41.643988	41.643988	0.639901	7.383274	2.830000	0.974960	0.393023	-28.769644
187.625527	0.209746	0.505484	0.547273	100.806132	7.142435	0.099927	41.033140	41.033140	41.033140	0.633848	7.378453	2.830000	0.989333	0.396223	-28.079067
190.328185	0.215361	0.510942	0.554474	100.865487	7.086075	0.097882	40.419399	40.419399	40.419399	0.627759	7.373736	2.830000	1.003588	0.399375	-27.383276
193.069773	0.221112	0.516404	0.561751	100.923463	7.031485	0.095867	39.802845	39.802845	39.802845	0.621635	7.369120	2.830000	1.017712	0.402475	-26.682366
195.850852	0.227001	0.521869	0.569101	100.980041	6.978641	0.093881	39.183559	39.183559	39.183559	0.615476	7.364600	2.830000	1.031690	0.405523	-25.976436
198.671992	0.233032	0.527332	0.576527	101.035203	6.927515	0.091925	38.561626	38.561626	38.561626	0.609282	7.360173	2.830000	1.045506	0.408516	-25.265587
201.533769	0.239207	0.532791	0.584026	101.088933	6.878084	0.089997	37.937131	37.937131	37.937131	0.603055	7.355835	2.830000	1.059146	0.411452	-24.549922
204.436768	0.245528	0.538243	0.591599	101.141211	6.830323	0.088098	37.310166	37.310166	37.310166	0.596796	7.351581	2.830000	1.072592	0.414329	-23.829549
207.381584	0.251997	0.543684	0.599245	101.192022	6.784210	0.086228	36.680822	36.680822	36.680822	0.590506	7.347409	2.830000	1.085831	0.417145	-23.104579
210.368818	0.258617	0.549111	0.606964	101.241347	6.739722	0.084387	36.049194	36.049194	36.049194	0.584185	7.343313	2.830000	1.098847	0.419899	-22.375124
213.399082	0.265391	0.554520	0.614756	101.289171	6.696839	0.082573	35.415378	35.415378	35.415378	0.577835	7.339290	2.830000	1.111623	0.422587	-21.641300
216.472995	0.272320	0.559908	0.622620	101.335478	6.655540	0.080788	34.779476	34.779476	34.779476	0.571457	7.335335	2.830000	1.124145	0.425210	-20.903228
219.591187	0.279408	0.565271	0.630555	101.380249	6.615806	0.079031	34.141587	34.141587	34.141587	0.565054	7.331445	2.830000	1.136396	0.427763	-20.161028
222.754295	0.286656	0.570603	0.638561	101.423471	6.577618	0.077301	33.501817	33.501817	33.501817	0.558626	7.327615	2.830000	1.148362	0.430247	-19.414826
225.962966	0.294066	0.575902	0.646636	101.465128	6.540958	0.075599	32.860269	32.860269	32.860269	0.552175	7.323841	2.830000	1.160027	0.432658	-18.664750
229.217857	0.301641	0.581163	0.654781	101.505205	6.505808	0.073924	32.217051	32.217051	32.217051	0.545703	7.320118	2.830000	1.171377	0.434996	-17.910930
232.519632	0.309382	0.586381	0.662993	101.543686	6.472153	0.072276	31.572273	31.572273	31.572273	0.539212	7.316443	2.830000	1.182396	0.437258	-17.153500
235.868968	0.317292	0.591551	0.671273	101.580558	6.439976	0.070655	30.926044	30.926044	30.926044	0.532704	7.312809	2.830000	1.193070	0.439443	-16.392595
239.266550	0.325373	0.596668	0.679618	101.615807	6.409261	0.069061	30.278475	30.278475	30.278475	0.526181	7.309213	2.830000	1.203385	0.441549	-15.628354
242.713072	0.333626	0.601728	0.688028	101.649419	6.379995	0.067494	29.629680	29.629680	29.629680	0.519646	7.305650	2.830000	1.213326	0.443574	-14.860918
246.209240	0.342054	0.606723	0.696501	101.681382	6.352162	0.065953	28.979770	28.979770	28.979770	0.513101	7.302115	2.830000	1.222880	0.445518	-14.090430
249.755769	0.350657	0.611651	0.705036	101.711683	6.325750	0.064438	28.328861	28.328861	28.328861	0.506548	7.298602	2.830000	1.232035	0.447378	-13.317035
253.353383	0.359437	0.616503	0.713632	101.740309	6.300745	0.062950	27.677066	27.677066	27.677066	0.499990	7.295106	2.830000	1.240777	0.449153	-12.540882
257.002820	0.368396	0.621275	0.722286	101.767249	6.277135	0.061487	27.024500	27.024500	27.024500	0.493430	7.291623	2.830000	1.249094	0.450843	-11.762119
260.704825	0.377534	0.625959	0.730997	101.792493	6.254908	0.060050	26.371276	26.371276	26.371276	0.486871	7.288145	2.830000	1.256975	0.452445	-10.980898
264.460155	0.386854	0.630551	0.739764	101.816028	6.234053	0.058639	25.717509	25.717509	25.717509	0.480315	7.284668	2.830000	1.264408	0.453958	-10.197373
268.269580	0.396355	0.635043	0.748583	101.837845	6.214558	0.057253	25.063311	25.063311	25.063311	0.473765	7.281186	2.830000	1.271384	0.455382	-9.411698
272.133877	0.406038	0.639428	0.757453	101.857935	6.196413	0.055892	24.408796	24.408796	24.408796	0.467225	7.277691	2.830000	1.277892	0.456716	-8.624030
276.053838	0.415904	0.643700	0.766371	101.876287	6.179609	0.054556	23.754073	23.754073	23.754073	0.460697	7.274179	2.830000	1.283923	0.457958	-7.834526
280.030263	0.425953	0.647850	0.775336	101.892893	6.164134	0.053245	23.099253	23.099253	23.099253	0.454185	7.270640	2.830000	1.289469	0.459107	-7.043345
284.063968	0.436185	0.651873	0.784344	101.907745	6.149981	0.051958	22.444443	22.444443	22.444443	0.447693	7.267070	2.830000	1.294522	0.460164	-6.250647
288.155776	0.446601	0.655760	0.793393	101.920835	6.137140	0.050696	21.789749	21.789749	21.789749	0.441223	7.263459	2.830000	1.299075	0.461127	-5.456593
292.306525	0.457199	0.659503	0.802480	101.932156	6.125603	0.049458	21.135273	21.135273	21.135273	0.434779	7.259801	2.830000	1.303122	0.461995	-4.661343
296.517063	0.467978	0.663095	0.811602	101.941700	6.115361	0.048244	20.481115	20.481115	20.481115	0.428364	7.256088	2.830000	1.306658	0.462769	-3.865060
300.788252	0.478939	0.666526	0.820756	101.949461	6.106408	0.047053	19.827373	19.827373	19.827373	0.421982	7.252310	2.830000	1.309677	0.463448	-3.067905
305.120965	0.490079	0.669790	0.829937	101.955433	6.098736	0.045886	19.174140	19.174140	19.174140	0.415638	7.248458	2.830000	1.312176	0.464031	-2.270041
309.516090	0.501396	0.672877	0.839144	101.959611	6.092338	0.044743	18.521504	18.521504	18.521504	0.409333	7.244525	2.830000	1.314152	0.464518	-1.471629
313.974523	0.512890	0.675778	0.848371	101.961989	6.087207	0.043622	17.869551	17.869551	17.869551	0.403073	7.240498	2.830000	1.315603	0.464909	-0.672831
318.497179	0.524557	0.678486	0.857615	101.962562	6.083338	0.042525	17.218360	17.218360	17.218360	0.396861	7.236369	2.830000	1.316527	0.465205	0.126192
323.084981	0.536395	0.680989	0.866871	101.961326	6.080723	0.041450	16.568007	16.568007	16.568007	0.390701	7.232126	2.830000	1.316925	0.465405	0.925279
327.738869	0.548401	0.683280	0.876136	101.958277	6.079357	0.040397	15.918561	15.918561	15.918561	0.384596	7.227757	2.830000	1.316796	0.465510	1.724270
332.459793	0.560571	0.685349	0.885405	101.953410	6.079235	0.039367	15.270085	15.270085	15.270085	0.378551	7.223250	2.830000	1.316142	0.465519	2.523008
337.248720	0.572901	0.687186	0.894673	101.946723	6.080352	0.038359	14.622635	14.622635	14.622635	0.372570	7.218593	2.830000	1.314965	0.465434	3.321335
342.106630	0.585386	0.688782	0.903935	101.938211	6.082702	0.037372	13.976260	13.976260	13.976260	0.366656	7.213772	2.830000	1.313267	0.465254	4.119096
347.034515	0.598023	0.690127	0.913185	101.927871	6.086281	0.036406	13.331005	13.331005	13.331005	0.360813	7.208772	2.830000	1.311053	0.464980	4.916137
352.033384	0.610805	0.691212	0.922419	101.915701	6.091086	0.035462	12.686901	12.686901	12.686901	0.355046	7.203578	2.830000	1.308327	0.464613	5.712306
357.104260	0.623726	0.692026	0.931630	101.901696	6.097110	0.034539	12.043976	12.043976	12.043976	0.349358	7.198174	2.830000	1.305094	0.464154	6.507454
362.248179	0.636780	0.692560	0.940812	101.885855	6.104352	0.033636	11.402247	11.402247	11.402247	0.343753	7.192544	2.830000	1.301360	0.463604	7.301433
367.466194	0.649960	0.692803	0.949960	101.868174	6.112806	0.032754	10.761721	10.761721	10.761721	0.338236	7.186668	2.830000	1.297132	0.462962	8.094100
372.759372	0.663258	0.692747	0.959067	101.848649	6.122470	0.031892	10.122395	10.122395	10.122395	0.332809	7.180528	2.830000	1.292418	0.462232	8.885312
378.128796	0.676666	0.692380	0.968126	101.827278	6.133340	0.031049	9.484258	9.484258	9.484258	0.327478	7.174104	2.830000	1.287225	0.461413	9.674932
383.575563	0.690174	0.691694	0.977129	101.804057	6.145413	0.030227	8.847285	8.847285	8.847285	0.322246	7.167374	2.830000	1.281563	0.460506	10.462824
389.100789	0.703775	0.690679	0.986071	101.778981	6.158687	0.029423	8.211442	8.211442	8.211442	0.317117	7.160315	2.830000	1.275441	0.459514	11.248857
394.705603	0.717456	0.689324	0.994943	101.752047	6.173158	0.028638	7.576682	7.576682	7.576682	0.312095	7.152903	2.830000	1.268869	0.458436	12.032903
400.391152	0.731208	0.687621	1.003737	101.723250	6.188825	0.027872	6.942945	6.942945	6.942945	0.307183	7.145113	2.830000	1.261857	0.457276	12.814839
406.158599	0.745018	0.685561	1.012445	101.692583	6.205684	0.027125	6.310159	6.310159	6.310159	0.302386	7.136917	2.830000	1.254417	0.456034	13.594545
412.009123	0.758875	0.683134	1.021060	101.660042	6.223734	0.026395	5.678239	5.678239	5.678239	0.297706	7.128287	2.830000	1.246561	0.454711	14.371906
417.943921	0.772765	0.680332	1.029571	101.625618	6.242973	0.025684	5.047084	5.047084	5.047084	0.293148	7.119193	2.830000	1.238299	0.453310	15.146813
423.964207	0.786675	0.677146	1.037971	101.589305	6.263399	0.024989	4.416580	4.416580	4.416580	0.288716	7.109601	2.830000	1.229645	0.451831	15.919160
430.071212	0.800590	0.673570	1.046251	101.551092	6.285011	0.024312	3.786598	3.786598	3.786598	0.284412	7.099478	2.830000	1.220611	0.450278	16.688848
436.266186	0.814494	0.669594	1.054399	101.510970	6.307807	0.023652	3.156993	3.156993	3.156993	0.280240	7.088787	2.830000	1.211210	0.448650	17.455781
442.550395	0.828372	0.665213	1.062407	101.468927	6.331787	0.023008	2.527603	2.527603	2.527603	0.276204	7.077490	2.830000	1.201456	0.446951	18.219872
448.925126	0.842207	0.660420	1.070265	101.424950	6.356949	0.022381	1.898253	1.898253	1.898253	0.272306	7.065546	2.830000	1.191362	0.445182	18.981037
455.391681	0.855982	0.655209	1.077963	101.379025	6.383292	0.021770	1.268748	1.268748	1.268748	0.268549	7.052912	2.830000	1.180942	0.443345	19.739199
461.951385	0.869677	0.649575	1.085489	101.331134	6.410817	0.021174	0.638876	0.638876	0.638876	0.264936	7.039542	2.830000	1.170209	0.441441	20.494289
468.605578	0.883274	0.643513	1.092832	101.281259	6.439522	0.020593	0.008410	0.008410	0.008410	0.261470	7.025389	2.830000	1.159177	0.439474	21.246241
475.355621	0.896754	0.637020	1.099983	101.229380	6.469409	0.020028	-0.622898	-0.622898	-0.622898	0.258154	7.010401	2.830000	1.147861	0.437443	21.995000
482.202895	0.910094	0.630094	1.106928	101.175472	6.500477	0.019477	-1.255311	-1.255311	-1.255311	0.254989	6.994525	2.830000	1.136275	0.435353	22.740515
489.148802	0.923276	0.622732	1.113657	101.119511	6.532727	0.018940	-1.889113	-1.889113	-1.889113	0.251978	6.977703	2.830000	1.124431	0.433203	23.482742
496.194760	0.936275	0.614934	1.120158	101.061468	6.566161	0.018418	-2.524604	-2.524604	-2.524604	0.249123	6.959876	2.830000	1.112345	0.430998	24.221647
503.342213	0.949070	0.606700	1.126419	101.001310	6.600779	0.017909	-3.162103	-3.162103	-3.162103	0.246424	6.940982	2.830000	1.100030	0.428737	24.957201
510.592621	0.961639	0.598031	1.132427	100.939004	6.636584	0.017414	-3.801948	-3.801948	-3.801948	0.243883	6.920952	2.830000	1.087499	0.426424	25.689384
517.947468	0.973956	0.588932	1.138170	100.874510	6.673579	0.016931	-4.444494	-4.444494	-4.444494	0.241502	6.899719	2.830000	1.074766	0.424060	26.418184
525.408258	0.985998	0.579404	1.143635	100.807786	6.711765	0.016462	-5.090113	-5.090113	-5.090113	0.239280	6.877209	2.830000	1.061844	0.421648	27.143594
532.976517	0.997740	0.569456	1.148810	100.738785	6.751148	0.016004	-5.739195	-5.739195	-5.739195	0.237217	6.853346	2.830000	1.048746	0.419188	27.865619
540.653794	1.009158	0.559092	1.153683	100.667458	6.791731	0.015559	-6.392146	-6.392146	-6.392146	0.235313	6.828050	2.830000	1.035484	0.416683	28.584271
548.441658	1.020226	0.548322	1.158239	100.593748	6.833520	0.015126	-7.049388	-7.049388	-7.049388	0.233568	6.801238	2.830000	1.022071	0.414135	29.299567
556.341702	1.030919	0.537156	1.162467	100.517596	6.876520	0.014704	-7.711356	-7.711356	-7.711356	0.231978	6.772822	2.830000	1.008520	0.411545	30.011536
564.355543	1.041211	0.525606	1.166354	100.438936	6.920739	0.014294	-8.378498	-8.378498	-8.378498	0.230544	6.742714	2.830000	0.994840	0.408916	30.720212
572.484820	1.051076	0.513686	1.169886	100.357698	6.966185	0.013894	-9.051275	-9.051275	-9.051275	0.229261	6.710820	2.830000	0.981044	0.406248	31.425638
580.731195	1.060490	0.501411	1.173052	100.273805	7.012867	0.013505	-9.730156	-9.730156	-9.730156	0.228126	6.677045	2.830000	0.967143	0.403544	32.127863
589.096355	1.069426	0.488798	1.175839	100.187176	7.060797	0.013125	-10.415617	-10.415617	-10.415617	0.227135	6.641289	2.830000	0.953146	0.400805	32.826946
597.582011	1.077861	0.475868	1.178234	100.097721	7.109986	0.012756	-11.108140	-11.108140	-11.108140	0.226283	6.603451	2.830000	0.939065	0.398032	33.522949
606.189899	1.085770	0.462642	1.180226	100.005347	7.160449	0.012397	-11.808205	-11.808205	-11.808205	0.225564	6.563429	2.830000	0.924907	0.395227	34.215942
614.921780	1.093129	0.449142	1.181803	99.909952	7.212202	0.012046	-12.516295	-12.516295	-12.516295	0.224971	6.521118	2.830000	0.910684	0.392391	34.906001
623.779440	1.099915	0.435395	1.182955	99.811430	7.265263	0.011705	-13.232882	-13.232882	-13.232882	0.224495	6.476413	2.830000	0.896402	0.389525	35.593203
632.764690	1.106107	0.421429	1.183670	99.709666	7.319651	0.011373	-13.958433	-13.958433	-13.958433	0.224129	6.429209	2.830000	0.882071	0.386630	36.277632
641.879368	1.111685	0.407273	1.183940	99.604540	7.375390	0.011048	-14.693396	-14.693396	-14.693396	0.223860	6.379402	2.830000	0.867698	0.383709	36.959374
651.125339	1.116628	0.392958	1.183754	99.495925	7.432505	0.010732	-15.438201	-15.438201	-15.438201	0.223679	6.326888	2.830000	0.853290	0.380760	37.638513
660.504493	1.120919	0.378519	1.183104	99.383688	7.491023	0.010424	-16.193251	-16.193251	-16.193251	0.223572	6.271568	2.830000	0.838855	0.377785	38.315137
670.018750	1.124542	0.363992	1.181984	99.267690	7.550977	0.010123	-16.958919	-16.958919	-16.958919	0.223525	6.213347	2.830000	0.824400	0.374786	38.989329
679.670056	1.127484	0.349415	1.180386	99.147788	7.612400	0.009830	-17.735535	-17.735535	-17.735535	0.223523	6.152133	2.830000	0.809930	0.371762	39.661167
689.460384	1.129733	0.334827	1.178307	99.023831	7.675330	0.009544	-18.523387	-18.523387	-18.523387	0.223550	6.087845	2.830000	0.795452	0.368714	40.330725
699.391737	1.131280	0.320271	1.175741	98.895668	7.739809	0.009264	-19.322707	-19.322707	-19.322707	0.223587	6.020408	2.830000	0.780972	0.365642	40.998069
709.466146	1.132117	0.305789	1.172687	98.763142	7.805881	0.008991	-20.133666	-20.133666	-20.133666	0.223615	5.949759	2.830000	0.766495	0.362547	41.663252
719.685673	1.132242	0.291426	1.169145	98.626095	7.873595	0.008724	-20.956364	-20.956364	-20.956364	0.223615	5.875847	2.830000	0.752027	0.359429	42.326315
730.052407	1.131653	0.277229	1.165116	98.484369	7.943004	0.008463	-21.790824	-21.790824	-21.790824	0.223564	5.798635	2.830000	0.737574	0.356288	42.987283
740.568469	1.130355	0.263245	1.160603	98.337807	8.014163	0.008208	-22.636983	-22.636983	-22.636983	0.223441	5.718106	2.830000	0.723141	0.353125	43.646162
751.236010	1.128352	0.249523	1.155612	98.186256	8.087134	0.007958	-23.494682	-23.494682	-23.494682	0.223223	5.634259	2.830000	0.708734	0.349939	44.302936
762.057212	1.125655	0.236111	1.150152	98.029567	8.161980	0.007714	-24.363661	-24.363661	-24.363661	0.222886	5.547116	2.830000	0.694359	0.346730	44.957565
773.034288	1.122279	0.223059	1.144231	97.867599	8.238768	0.007476	-25.243549	-25.243549	-25.243549	0.222406	5.456722	2.830000	0.680021	0.343498	45.609984
784.169484	1.118241	0.210417	1.137865	97.700222	8.317570	0.007242	-26.133860	-26.133860	-26.133860	0.221759	5.363147	2.830000	0.665728	0.340244	46.260097
795.465078	1.113563	0.198234	1.131070	97.527320	8.398458	0.007013	-27.033986	-27.033986	-27.033986	0.220922	5.266490	2.830000	0.651486	0.336967	46.907776
806.923378	1.108274	0.186559	1.123866	97.348792	8.481509	0.006789	-27.943194	-27.943194	-27.943194	0.219872	5.166878	2.830000	0.637302	0.333667	47.552863
818.546731	1.102403	0.175439	1.116275	97.164559	8.566800	0.006569	-28.860620	-28.860620	-28.860620	0.218588	5.064467	2.830000	0.623184	0.330345	48.195165
830.337512	1.095987	0.164921	1.108326	96.974565	8.654411	0.006355	-29.785275	-29.785275	-29.785275	0.217049	4.959447	2.830000	0.609141	0.327001	48.834453
842.298134	1.089067	0.155050	1.100049	96.778781	8.744421	0.006144	-30.716038	-30.716038	-30.716038	0.215236	4.852038	2.830000	0.595180	0.323635	49.470465
854.431043	1.081687	0.145868	1.091478	96.577209	8.836909	0.005938	-31.651666	-31.651666	-31.651666	0.213135	4.742492	2.830000	0.581311	0.320248	50.102907
866.738721	1.073899	0.137414	1.082655	96.369886	8.931955	0.005736	-32.590796	-32.590796	-32.590796	0.210732	4.631089	2.830000	0.567544	0.316840	50.731450
879.223685	1.065755	0.129723	1.073621	96.156889	9.029634	0.005539	-33.531955	-33.531955	-33.531955	0.208018	4.518141	2.830000	0.553890	0.313412	51.355739
891.888489	1.057314	0.122828	1.064425	95.938332	9.130021	0.005346	-34.473568	-34.473568	-34.473568	0.204985	4.403985	2.830000	0.540358	0.309966	51.975392
904.735724	1.048640	0.116756	1.055120	95.714378	9.233187	0.005157	-35.413975	-35.413975	-35.413975	0.201632	4.288983	2.830000	0.526960	0.306503	52.590005
917.768017	1.039798	0.111530	1.045763	95.485234	9.339196	0.004972	-36.351444	-36.351444	-36.351444	0.197959	4.173514	2.830000	0.513707	0.303024	53.199157
930.988035	1.030859	0.107166	1.036414	95.251157	9.448109	0.004792	-37.284190	-37.284190	-37.284190	0.193974	4.057976	2.830000	0.500611	0.299531	53.802419
944.398480	1.021895	0.103676	1.027141	95.012452	9.559981	0.004616	-38.210393	-38.210393	-38.210393	0.189685	3.942776	2.830000	0.487683	0.296026	54.399352
958.002097	1.012982	0.101064	1.018011	94.769474	9.674861	0.004445	-39.128219	-39.128219	-39.128219	0.185108	3.828326	2.830000	0.474934	0.292511	54.989523
971.801667	1.004197	0.099327	1.009098	94.522626	9.792788	0.004277	-40.035845	-40.035845	-40.035845	0.180260	3.715037	2.830000	0.462374	0.288988	55.572505
985.800014	0.995620	0.098455	1.000476	94.272357	9.913797	0.004114	-40.931478	-40.931478	-40.931478	0.175164	3.603314	2.830000	0.450016	0.285461	56.147886
1000.000000	0.987329	0.098430	0.992223	94.019160	10.037913	0.003956	-41.813381	-41.813381	-41.813381	0.169846	3.493549	2.830000	0.437868	0.281931	56.715276
1014.404530	0.979403	0.099225	0.984416	93.763565	10.165155	0.003802	-42.679893	-42.679893	-42.679893	0.164335	3.386116	2.830000	0.425941	0.278402	57.274309
1029.016551	0.971921	0.100806	0.977134	93.506133	10.295535	0.003652	-43.529455	-43.529455	-43.529455	0.158662	3.281363	2.830000	0.414241	0.274876	57.824654
1043.839051	0.964957	0.103129	0.970453	93.247452	10.429056	0.003508	-44.360627	-44.360627	-44.360627	0.152861	3.179609	2.830000	0.402778	0.271357	58.366017
1058.875063	0.958586	0.106142	0.964445	92.988124	10.565716	0.003367	-45.172106	-45.172106	-45.172106	0.146969	3.081138	2.830000	0.391558	0.267847	58.898145
1074.127661	0.952876	0.109785	0.959180	92.728758	10.705505	0.003231	-45.962750	-45.962750	-45.962750	0.141021	2.986196	2.830000	0.380585	0.264350	59.420826
1089.599965	0.947890	0.113989	0.954720	92.469960	10.848411	0.003100	-46.731584	-46.731584	-46.731584	0.135054	2.894989	2.830000	0.369865	0.260868	59.933896
1105.295141	0.943686	0.118676	0.951119	92.212321	10.994414	0.002973	-47.477817	-47.477817	-47.477817	0.129107	2.807676	2.830000	0.359401	0.257403	60.437238
1121.216399	0.940312	0.123762	0.948422	91.956403	11.143492	0.002851	-48.200854	-48.200854	-48.200854	0.123215	2.724373	2.830000	0.349195	0.253960	60.930781
1137.366994	0.937811	0.129154	0.946663	91.702731	11.295620	0.002733	-48.900295	-48.900295	-48.900295	0.117414	2.645150	2.830000	0.339248	0.250540	61.414499
1153.750232	0.936214	0.134756	0.945862	91.451782	11.450771	0.002620	-49.575949	-49.575949	-49.575949	0.111737	2.570029	2.830000	0.329560	0.247145	61.888411
1170.369462	0.935540	0.140463	0.946026	91.203970	11.608918	0.002511	-50.227828	-50.227828	-50.227828	0.106217	2.498991	2.830000	0.320130	0.243778	62.352577
1187.228084	0.935800	0.146169	0.947147	90.959639	11.770030	0.002406	-50.856148	-50.856148	-50.856148	0.100884	2.431972	2.830000	0.310957	0.240441	62.807098
1204.329547	0.936989	0.151764	0.949200	90.719059	11.934082	0.002306	-51.461327	-51.461327	-51.461327	0.095764	2.368867	2.830000	0.302037	0.237136	63.252110
1221.677349	0.939091	0.157135	0.952147	90.482410	12.101047	0.002210	-52.043977	-52.043977	-52.043977	0.090881	2.309535	2.830000	0.293367	0.233864	63.687779
1239.275037	0.942074	0.162173	0.955931	90.249787	12.270901	0.002117	-52.604899	-52.604899	-52.604899	0.086257	2.253801	2.830000	0.284943	0.230627	64.114302
1257.126212	0.945894	0.166768	0.960483	90.021193	12.443623	0.002029	-53.145066	-53.145066	-53.145066	0.081909	2.201459	2.830000	0.276760	0.227426	64.531898
1275.234525	0.950491	0.170816	0.965718	89.796538	12.619195	0.001944	-53.665619	-53.665619	-53.665619	0.077853	2.152275	2.830000	0.268813	0.224262	64.940809
1293.603680	0.955791	0.174219	0.971539	89.575642	12.797604	0.001863	-54.167845	-54.167845	-54.167845	0.074100	2.105995	2.830000	0.261097	0.221135	65.341292
1312.237433	0.961707	0.176885	0.977838	89.358241	12.978840	0.001786	-54.653166	-54.653166	-54.653166	0.070656	2.062345	2.830000	0.253605	0.218047	65.733616
1331.139597	0.968138	0.178736	0.984498	89.143987	13.162899	0.001712	-55.123117	-55.123117	-55.123117	0.067527	2.021036	2.830000	0.246331	0.214998	66.118060
1350.314038	0.974971	0.179703	0.991394	88.932461	13.349781	0.001641	-55.579329	-55.579329	-55.579329	0.064713	1.981770	2.830000	0.239269	0.211988	66.494908
1369.764677	0.982083	0.179733	0.998394	88.723176	13.539492	0.001574	-56.023504	-56.023504	-56.023504	0.062211	1.944244	2.830000	0.232413	0.209018	66.864447
1389.495494	0.989342	0.178790	1.005368	88.515589	13.732044	0.001509	-56.457395	-56.457395	-56.457395	0.060014	1.908152	2.830000	0.225757	0.206087	67.226963
1409.510524	0.996609	0.176855	1.012179	88.309113	13.927453	0.001448	-56.882776	-56.882776	-56.882776	0.058111	1.873191	2.830000	0.219292	0.203196	67.582739
1429.813862	1.003739	0.173929	1.018697	88.103124	14.125744	0.001389	-57.301418	-57.301418	-57.301418	0.056490	1.839065	2.830000	0.213015	0.200343	67.932049
1450.409659	1.010589	0.170035	1.024794	87.896973	14.326944	0.001332	-57.715061	-57.715061	-57.715061	0.055132	1.805491	2.830000	0.206917	0.197530	68.275162
1471.302129	1.017014	0.165214	1.030347	87.690001	14.531089	0.001278	-58.125378	-58.125378	-58.125378	0.054017	1.772198	2.830000	0.200994	0.194755	68.612332
1492.495545	1.022877	0.159533	1.035243	87.481548	14.738219	0.001227	-58.533951	-58.533951	-58.533951	0.053121	1.738938	2.830000	0.195238	0.192018	68.943803
1513.994242	1.028046	0.153079	1.039381	87.270965	14.948381	0.001177	-58.942235	-58.942235	-58.942235	0.052416	1.705487	2.830000	0.189645	0.189318	69.269801
1535.802619	1.032405	0.145959	1.042671	87.057631	15.161627	0.001130	-59.351525	-59.351525	-59.351525	0.051874	1.671649	2.830000	0.184210	0.186655	69.590537
1557.925134	1.035849	0.138300	1.045040	86.840960	15.378012	0.001085	-59.762929	-59.762929	-59.762929	0.051461	1.637260	2.830000	0.178926	0.184029	69.906201
1580.366314	1.038295	0.130248	1.046433	86.620423	15.597600	0.001041	-60.177335	-60.177335	-60.177335	0.051144	1.602194	2.830000	0.173789	0.181438	70.216965
1603.130749	1.039684	0.121962	1.046813	86.395555	15.820456	0.001000	-60.595385	-60.595385	-60.595385	0.050887	1.566365	2.830000	0.168794	0.178882	70.522977
1626.223094	1.039978	0.113614	1.046165	86.165975	16.046649	0.000960	-61.017454	-61.017454	-61.017454	0.050656	1.529728	2.830000	0.163937	0.176361	70.824365
1649.648074	1.039171	0.105381	1.044500	85.931396	16.276252	0.000921	-61.443631	-61.443631	-61.443631	0.050414	1.492284	2.830000	0.159214	0.173873	71.121235
1673.410480	1.037284	0.097446	1.041851	85.691645	16.509338	0.000884	-61.873709	-61.873709	-61.873709	0.050127	1.454080	2.830000	0.154622	0.171418	71.413668
1697.515172	1.034371	0.089986	1.038278	85.446674	16.745983	0.000849	-62.307182	-62.307182	-62.307182	0.049764	1.415207	2.830000	0.150156	0.168996	71.701727
1721.967081	1.030517	0.083174	1.033868	85.196572	16.986261	0.000814	-62.743253	-62.743253	-62.743253	0.049295	1.375799	2.830000	0.145813	0.166605	71.985453
1746.771208	1.025837	0.077166	1.028735	84.941576	17.230247	0.000781	-63.180851	-63.180851	-63.180851	0.048695	1.336030	2.830000	0.141591	0.164246	72.264869
1771.932627	1.020474	0.072102	1.023018	84.682076	17.478011	0.000750	-63.618657	-63.618657	-63.618657	0.047946	1.296109	2.830000	0.137487	0.161918	72.539983
1797.456484	1.014599	0.068093	1.016882	84.418620	17.729622	0.000719	-64.055145	-64.055145	-64.055145	0.047034	1.256273	2.830000	0.133497	0.159620	72.810791
1823.348001	1.008404	0.065223	1.010511	84.151904	17.985146	0.000689	-64.488629	-64.488629	-64.488629	0.045952	1.216777	2.830000	0.129621	0.157352	73.077277
1849.612473	1.002095	0.063540	1.004107	83.882768	18.244640	0.000661	-64.917319	-64.917319	-64.917319	0.044701	1.177887	2.830000	0.125854	0.155114	73.339424
1876.255272	0.995891	0.063053	0.997885	83.612166	18.508161	0.000633	-65.339392	-65.339392	-65.339392	0.043287	1.139869	2.830000	0.122196	0.152906	73.597212
1903.281848	0.990012	0.063729	0.992062	83.341145	18.775757	0.000607	-65.753056	-65.753056	-65.753056	0.041726	1.102976	2.830000	0.118643	0.150726	73.850624
1930.697729	0.984675	0.065492	0.986850	83.070803	19.047471	0.000582	-66.156624	-66.156624	-66.156624	0.040038	1.067441	2.830000	0.115194	0.148576	74.099651
1958.508523	0.980078	0.068226	0.982450	82.802246	19.323343	0.000557	-66.548590	-66.548590	-66.548590	0.038252	1.033466	2.830000	0.111847	0.146455	74.344293
1986.719919	0.976402	0.071771	0.979036	82.536533	19.603406	0.000534	-66.927685	-66.927685	-66.927685	0.036398	1.001211	2.830000	0.108598	0.144363	74.584564
2015.337686	0.973792	0.075933	0.976748	82.274623	19.887691	0.000511	-67.292950	-67.292950	-67.292950	0.034513	0.970790	2.830000	0.105446	0.142299	74.820493
2044.367679	0.972355	0.080489	0.975681	82.017316	20.176227	0.000490	-67.643772	-67.643772	-67.643772	0.032634	0.942267	2.830000	0.102389	0.140264	75.052125
2073.815835	0.972153	0.085190	0.975878	81.765210	20.469040	0.000469	-67.979930	-67.979930	-67.979930	0.030799	0.915649	2.830000	0.099423	0.138258	75.279523
2103.688178	0.973192	0.089777	0.977324	81.518652	20.766157	0.000449	-68.301605	-68.301605	-68.301605	0.029046	0.890890	2.830000	0.096546	0.136279	75.502765
2133.990819	0.975427	0.093989	0.979945	81.277711	21.067606	0.000430	-68.609393	-68.609393	-68.609393	0.027408	0.867892	2.830000	0.093756	0.134329	75.721948
2164.729954	0.978754	0.097575	0.983605	81.042168	21.373417	0.000412	-68.904280	-68.904280	-68.904280	0.025917	0.846509	2.830000	0.091050	0.132407	75.937178
2195.911873	0.983013	0.100307	0.988118	80.811511	21.683625	0.000395	-69.187614	-69.187614	-69.187614	0.024597	0.826554	2.830000	0.088425	0.130513	76.148576
2227.542952	0.987997	0.101995	0.993248	80.584965	21.998269	0.000378	-69.461052	-69.461052	-69.461052	0.023464	0.807808	2.830000	0.085878	0.128646	76.356269
2259.629662	0.993454	0.102494	0.998727	80.361520	22.317393	0.000362	-69.726491	-69.726491	-69.726491	0.022530	0.790029	2.830000	0.083407	0.126807	76.560392
2292.178566	0.999100	0.101719	1.004265	80.139986	22.641051	0.000347	-69.985984	-69.985984	-69.985984	0.021796	0.772962	2.830000	0.081009	0.124994	76.761079
2325.196322	1.004635	0.099652	1.009565	79.919052	22.969300	0.000333	-70.241644	-70.241644	-70.241644	0.021254	0.756354	2.830000	0.078682	0.123208	76.958464
2358.689683	1.009753	0.096346	1.014339	79.697352	23.302206	0.000319	-70.495542	-70.495542	-70.495542	0.020889	0.739961	2.830000	0.076422	0.121448	77.152676
2392.665500	1.014166	0.091926	1.018324	79.473540	23.639842	0.000306	-70.749595	-70.749595	-70.749595	0.020676	0.723566	2.830000	0.074228	0.119713	77.343833
2427.130723	1.017617	0.086587	1.021294	79.246361	23.982287	0.000293	-71.005464	-71.005464	-71.005464	0.020585	0.706982	2.830000	0.072098	0.118004	77.532047
2462.092401	1.019900	0.080584	1.023079	79.014726	24.329628	0.000281	-71.264447	-71.264447	-71.264447	0.020579	0.690071	2.830000	0.070028	0.116319	77.717411
2497.557686	1.020874	0.074224	1.023569	78.777778	24.681955	0.000269	-71.527402	-71.527402	-71.527402	0.020616	0.672743	2.830000	0.068018	0.114659	77.900007
2533.533832	1.020478	0.067845	1.022731	78.534956	25.039363	0.000258	-71.794676	-71.794676	-71.794676	0.020654	0.654969	2.830000	0.066065	0.113022	78.079897
2570.028197	1.018739	0.061796	1.020612	78.286047	25.401948	0.000248	-72.066077	-72.066077	-72.066077	0.020651	0.636775	2.830000	0.064167	0.111409	78.257130
2607.048246	1.015775	0.056417	1.017340	78.031221	25.769806	0.000237	-72.340866	-72.340866	-72.340866	0.020570	0.618250	2.830000	0.062324	0.109818	78.431736
2644.601552	1.011790	0.052010	1.013126	77.771055	26.143034	0.000228	-72.617802	-72.617802	-72.617802	0.020379	0.599529	2.830000	0.060533	0.108251	78.603733
2682.695795	1.007070	0.048820	1.008252	77.506521	26.521724	0.000218	-72.895211	-72.895211	-72.895211	0.020055	0.580794	2.830000	0.058793	0.106705	78.773127
2721.338768	1.001960	0.047009	1.003062	77.238950	26.905965	0.000209	-73.171108	-73.171108	-73.171108	0.019586	0.562250	2.830000	0.057103	0.105181	78.939917
2760.538375	0.996847	0.046641	0.997938	76.969959	27.295840	0.000200	-73.443338	-73.443338	-73.443338	0.018973	0.544119	2.830000	0.055462	0.103679	79.104098
2800.302634	0.992128	0.047671	0.993272	76.701344	27.691427	0.000192	-73.709744	-73.709744	-73.709744	0.018228	0.526614	2.830000	0.053869	0.102198	79.265664
2840.639679	0.988178	0.049942	0.989439	76.434933	28.092797	0.000184	-73.968347	-73.968347	-73.968347	0.017375	0.509923	2.830000	0.052322	0.100738	79.424616
2881.557759	0.985323	0.053192	0.986758	76.172428	28.500018	0.000176	-74.217517	-74.217517	-74.217517	0.016448	0.494198	2.830000	0.050820	0.099298	79.580962
2923.065245	0.983804	0.057070	0.985458	75.915234	28.913152	0.000169	-74.456123	-74.456123	-74.456123	0.015488	0.479533	2.830000	0.049363	0.097879	79.734722
2965.170628	0.983751	0.061161	0.985651	75.664295	29.332260	0.000162	-74.683645	-74.683645	-74.683645	0.014540	0.465962	2.830000	0.047948	0.096481	79.885927
3007.882518	0.985169	0.065020	0.987313	75.419979	29.757403	0.000155	-74.900241	-74.900241	-74.900241	0.013648	0.453456	2.830000	0.046575	0.095102	80.034624
3051.209653	0.987926	0.068212	0.990278	75.182013	30.188645	0.000148	-75.106748	-75.106748	-75.106748	0.012852	0.441920	2.830000	0.045243	0.093744	80.180869
3095.160895	0.991760	0.070354	0.994252	74.949480	30.626051	0.000142	-75.304631	-75.304631	-75.304631	0.012186	0.431207	2.830000	0.043950	0.092405	80.324731
3139.745234	0.996294	0.071157	0.998832	74.720895	31.069696	0.000136	-75.495859	-75.495859	-75.495859	0.011670	0.421128	2.830000	0.042694	0.091086	80.466285
3184.971790	1.001074	0.070459	1.003551	74.494344	31.519660	0.000130	-75.682731	-75.682731	-75.682731	0.011312	0.411471	2.830000	0.041475	0.089785	80.605612
3230.849813	1.005605	0.068249	1.007918	74.267673	31.976031	0.000125	-75.867662	-75.867662	-75.867662	0.011106	0.402019	2.830000	0.040292	0.088504	80.742791
3277.388687	1.009405	0.064679	1.011475	74.038703	32.438906	0.000120	-76.052938	-76.052938	-76.052938	0.011031	0.392574	2.830000	0.039142	0.087241	80.877896
3324.597932	1.012059	0.060054	1.013839	73.805463	32.908391	0.000115	-76.240479	-76.240479	-76.240479	0.011052	0.382973	2.830000	0.038025	0.085996	81.010995
3372.487204	1.013268	0.054809	1.014750	73.566407	33.384597	0.000110	-76.431620	-76.431620	-76.431620	0.011127	0.373107	2.830000	0.036940	0.084770	81.142145
3421.066299	1.012895	0.049464	1.014102	73.320603	33.867641	0.000105	-76.626948	-76.626948	-76.626948	0.011208	0.362932	2.830000	0.035886	0.083561	81.271388
3470.345152	1.010985	0.044566	1.011966	73.067874	34.357642	0.000101	-76.826214	-76.826214	-76.826214	0.011246	0.352473	2.830000	0.034862	0.082369	81.398755
3520.333844	1.007773	0.040624	1.008591	72.808865	34.854720	0.000097	-77.028347	-77.028347	-77.028347	0.011201	0.341822	2.830000	0.033867	0.081194	81.524264
3571.042600	1.003666	0.038044	1.004387	72.545028	35.358992	0.000093	-77.231562	-77.231562	-77.231562	0.011042	0.331125	2.830000	0.032901	0.080036	81.647920
3622.481792	0.999199	0.037065	0.999886	72.278496	35.870569	0.000089	-77.433580	-77.433580	-77.433580	0.010755	0.320562	2.830000	0.031962	0.078895	81.769724
3674.661941	0.994968	0.037722	0.995683	72.011847	36.389559	0.000085	-77.631923	-77.631923	-77.631923	0.010344	0.310326	2.830000	0.031050	0.077770	81.889674
3727.593720	0.991555	0.039826	0.992354	71.747774	36.916062	0.000082	-77.824249	-77.824249	-77.824249	0.009829	0.300593	2.830000	0.030164	0.076660	82.007770
3781.287957	0.989442	0.042980	0.990375	71.488688	37.450172	0.000078	-78.008691	-78.008691	-78.008691	0.009249	0.291495	2.830000	0.029304	0.075567	82.124018
3835.755635	0.988934	0.046626	0.990033	71.236319	37.991981	0.000075	-78.184146	-78.184146	-78.184146	0.008650	0.283105	2.830000	0.028469	0.074489	82.238435
3891.007893	0.990107	0.050118	0.991375	70.991395	38.541579	0.000072	-78.350460	-78.350460	-78.350460	0.008084	0.275424	2.830000	0.027659	0.073427	82.351047
3947.056035	0.992777	0.052815	0.994181	70.753464	39.099059	0.000069	-78.508478	-78.508478	-78.508478	0.007597	0.268379	2.830000	0.026872	0.072380	82.461894
4003.911523	0.996520	0.054188	0.997992	70.520925	39.664518	0.000066	-78.659945	-78.659945	-78.659945	0.007226	0.261835	2.830000	0.026107	0.071348	82.571021
4061.585988	1.000724	0.053910	1.002175	70.291248	40.238060	0.000063	-78.807255	-78.807255	-78.807255	0.006987	0.255616	2.830000	0.025365	0.070331	82.678484
4120.091227	1.004685	0.051925	1.006026	70.061380	40.819800	0.000060	-78.953078	-78.953078	-78.953078	0.006880	0.249531	2.830000	0.024644	0.069329	82.784336
4179.439206	1.007718	0.048468	1.008883	69.828249	41.409862	0.000058	-79.099931	-79.099931	-79.099931	0.006881	0.243408	2.830000	0.023943	0.068341	82.888630
4239.642065	1.009288	0.044046	1.010249	69.589295	42.008376	0.000055	-79.249736	-79.249736	-79.249736	0.006950	0.237117	2.830000	0.023263	0.067368	82.991409
4300.712118	1.009110	0.039357	1.009877	69.342941	42.615484	0.000053	-79.403468	-79.403468	-79.403468	0.007033	0.230595	2.830000	0.022602	0.066408	83.092710
4362.661857	1.007219	0.035169	1.007833	69.088929	43.231326	0.000051	-79.560956	-79.560956	-79.560956	0.007079	0.223859	2.830000	0.021959	0.065462	83.192554
4425.503952	1.003983	0.032177	1.004499	68.828449	43.856045	0.000049	-79.720885	-79.720885	-79.720885	0.007043	0.216995	2.830000	0.021335	0.064529	83.290954
4489.251258	1.000048	0.030858	1.000524	68.564008	44.489782	0.000047	-79.881034	-79.881034	-79.881034	0.006895	0.210151	2.830000	0.020728	0.063610	83.387914
4553.916814	0.996217	0.031362	0.996711	68.299016	45.132668	0.000045	-80.038699	-80.038699	-80.038699	0.006633	0.203495	2.830000	0.020139	0.062704	83.483432
4619.513847	0.993297	0.033461	0.993860	68.037127	45.784832	0.000043	-80.191258	-80.191258	-80.191258	0.006276	0.197190	2.830000	0.019567	0.061811	83.577511
4686.055775	0.991916	0.036580	0.992590	67.781431	46.446395	0.000041	-80.336734	-80.336734	-80.336734	0.005866	0.191351	2.830000	0.019011	0.060930	83.670157
4753.556208	0.992380	0.039901	0.993181	67.533693	47.117475	0.000039	-80.474258	-80.474258	-80.474258	0.005458	0.186023	2.830000	0.018471	0.060063	83.761384
4822.028953	0.994579	0.042542	0.995488	67.293850	47.798192	0.000038	-80.604290	-80.604290	-80.604290	0.005106	0.181170	2.830000	0.017947	0.059207	83.851218
4891.488015	0.997992	0.043756	0.998951	67.059936	48.488669	0.000036	-80.728559	-80.728559	-80.728559	0.004853	0.176682	2.830000	0.017438	0.058364	83.939693
4961.947603	1.001793	0.043126	1.002721	66.828493	49.189039	0.000035	-80.849686	-80.849686	-80.849686	0.004718	0.172403	2.830000	0.016943	0.057533	84.026850
5033.422128	1.005035	0.040683	1.005858	66.595390	49.899445	0.000033	-80.970573	-80.970573	-80.970573	0.004695	0.168163	2.830000	0.016463	0.056714	84.112728
5105.926210	1.006888	0.036926	1.007565	66.356844	50.620039	0.000032	-81.093693	-81.093693	-81.093693	0.004748	0.163821	2.830000	0.015996	0.055907	84.197366
5179.474679	1.006869	0.032713	1.007401	66.110407	51.350983	0.000030	-81.220443	-81.220443	-81.220443	0.004825	0.159301	2.830000	0.015542	0.055111	84.280792
5254.082580	1.004986	0.029051	1.005406	65.855671	52.092443	0.000029	-81.350755	-81.350755	-81.350755	0.004868	0.154611	2.830000	0.015102	0.054326	84.363025
5329.765172	1.001768	0.026823	1.002127	65.594502	52.844585	0.000028	-81.483076	-81.483076	-81.483076	0.004829	0.149837	2.830000	0.014673	0.053553	84.444074
5406.537936	0.998137	0.026525	0.998489	65.330664	53.607571	0.000027	-81.614781	-81.614781	-81.614781	0.004684	0.145121	2.830000	0.014257	0.052791	84.523942
5484.416576	0.995163	0.028101	0.995560	65.068841	54.381557	0.000026	-81.742912	-81.742912	-81.742912	0.004443	0.140618	2.830000	0.013853	0.052040	84.602629
5563.417021	0.993746	0.030928	0.994227	64.813255	55.166693	0.000025	-81.865066	-81.865066	-81.865066	0.004143	0.136449	2.830000	0.013460	0.051299	84.680140
5643.555431	0.994322	0.033981	0.994902	64.566273	55.963124	0.000024	-81.980150	-81.980150	-81.980150	0.003841	0.132665	2.830000	0.013079	0.050569	84.756487
5724.848197	0.996701	0.036136	0.997356	64.327511	56.770997	0.000023	-82.088768	-82.088768	-82.088768	0.003596	0.129230	2.830000	0.012708	0.049849	84.831690
5807.311946	1.000098	0.036540	1.000766	64.093828	57.590465	0.000022	-82.193070	-82.193070	-82.193070	0.003449	0.126029	2.830000	0.012348	0.049140	84.905778
5890.963548	1.003360	0.034910	1.003967	63.860296	58.421691	0.000021	-82.296083	-82.296083	-82.296083	0.003409	0.122912	2.830000	0.011999	0.048441	84.978782
5975.820111	1.005353	0.031668	1.005852	63.621854	59.264849	0.000020	-82.400708	-82.400708	-82.400708	0.003450	0.119736	2.830000	0.011659	0.047752	85.050735
6061.898993	1.005368	0.027824	1.005753	63.375080	60.120124	0.000019	-82.508700	-82.508700	-82.508700	0.003519	0.116419	2.830000	0.011329	0.047072	85.121661
6149.217802	1.003404	0.024638	1.003707	63.119500	60.987706	0.000018	-82.620020	-82.620020	-82.620020	0.003553	0.112965	2.830000	0.011008	0.046403	85.191575
6237.794396	1.000211	0.023153	1.000479	62.857930	61.867786	0.000017	-82.732804	-82.732804	-82.732804	0.003505	0.109462	2.830000	0.010696	0.045743	85.260485
6327.646895	0.997031	0.023783	0.997315	62.595603	62.760548	0.000017	-82.844049	-82.844049	-82.844049	0.003358	0.106049	2.830000	0.010393	0.045092	85.328393
6418.793677	0.995136	0.026108	0.995478	62.338225	63.666170	0.000016	-82.950771	-82.950771	-82.950771	0.003139	0.102859	2.830000	0.010099	0.044451	85.395302
6511.253386	0.995299	0.029003	0.995722	62.089615	64.584826	0.000015	-83.051231	-83.051231	-83.051231	0.002901	0.099966	2.830000	0.009813	0.043818	85.461217
6605.044933	0.997446	0.031079	0.997930	61.849926	65.516690	0.000015	-83.145691	-83.145691	-83.145691	0.002707	0.097353	2.830000	0.009535	0.043195	85.526157
6700.187504	1.000637	0.031269	1.001126	61.615396	66.461939	0.000014	-83.236355	-83.236355	-83.236355	0.002604	0.094921	2.830000	0.009266	0.042581	85.590143
6796.700558	1.003447	0.029324	1.003875	61.379884	67.420765	0.000013	-83.326460	-83.326460	-83.326460	0.002597	0.092528	2.830000	0.009003	0.041975	85.653202
6894.603838	1.004588	0.025971	1.004924	61.137596	68.393369	0.000013	-83.418844	-83.418844	-83.418844	0.002650	0.090055	2.830000	0.008749	0.041378	85.715359
6993.917368	1.003529	0.022619	1.003784	60.885785	69.379964	0.000012	-83.514632	-83.514632	-83.514632	0.002702	0.087456	2.830000	0.008501	0.040790	85.776632
7094.661463	1.000790	0.020715	1.001005	60.626216	70.380765	0.000012	-83.612668	-83.612668	-83.612668	0.002690	0.084781	2.830000	0.008261	0.040210	85.837031
7196.856730	0.997742	0.021020	0.997964	60.364556	71.395984	0.000011	-83.710040	-83.710040	-83.710040	0.002588	0.082148	2.830000	0.008027	0.039638	85.896557
7300.524071	0.995945	0.023188	0.996214	60.107720	72.425825	0.000011	-83.803517	-83.803517	-83.803517	0.002414	0.079685	2.830000	0.007800	0.039074	85.955214
7405.684692	0.996337	0.025888	0.996673	59.860257	73.470489	0.000010	-83.891229	-83.891229	-83.891229	0.002224	0.077462	2.830000	0.007579	0.038519	86.013009
7512.360102	0.998699	0.027471	0.999077	59.621700	74.530175	0.000010	-83.973702	-83.973702	-83.973702	0.002085	0.075455	2.830000	0.007365	0.037971	86.069956
7620.572122	1.001710	0.026876	1.002071	59.386588	75.605091	0.000010	-84.053628	-84.053628	-84.053628	0.002035	0.073559	2.830000	0.007157	0.037431	86.126074
7730.342884	1.003651	0.024258	1.003944	59.147404	76.695458	0.000009	-84.134414	-84.134414	-84.134414	0.002064	0.071642	2.830000	0.006954	0.036899	86.181388
7841.694843	1.003389	0.020968	1.003608	58.898872	77.801509	0.000009	-84.218240	-84.218240	-84.218240	0.002117	0.069626	2.830000	0.006758	0.036375	86.235915
7954.650775	1.001092	0.018792	1.001269	58.641197	78.923483	0.000008	-84.304748	-84.304748	-84.304748	0.002126	0.067524	2.830000	0.006567	0.035858	86.289666
8069.233784	0.998191	0.018872	0.998369	58.380225	80.061617	0.000008	-84.391220	-84.391220	-84.391220	0.002052	0.065436	2.830000	0.006381	0.035348	86.342645
8185.467307	0.996532	0.020944	0.996752	58.124071	81.216142	0.000008	-84.474241	-84.474241	-84.474241	0.001909	0.063483	2.830000	0.006201	0.034845	86.394855
8303.375120	0.997192	0.023441	0.997467	57.877893	82.387286	0.000007	-84.551892	-84.551892	-84.551892	0.001755	0.061729	2.830000	0.006025	0.034350	86.446301
8422.981339	0.999716	0.024480	1.000016	57.640211	83.575274	0.000007	-84.625062	-84.625062	-84.625062	0.001658	0.060141	2.830000	0.005855	0.033862	86.496998
8544.310429	1.002355	0.023143	1.002623	57.403636	84.780344	0.000007	-84.696911	-84.696911	-84.696911	0.001646	0.058609	2.830000	0.005690	0.033380	86.546964
8667.387209	1.003243	0.020178	1.003445	57.159881	86.002747	0.000007	-84.770718	-84.770718	-84.770718	0.001690	0.057021	2.830000	0.005529	0.032906	86.596217
8792.236851	1.001743	0.017534	1.001896	56.905701	87.242743	0.000006	-84.847556	-84.847556	-84.847556	0.001721	0.055344	2.830000	0.005373	0.032438	86.644771
8918.884894	0.998990	0.016964	0.999134	56.645528	88.500597	0.000006	-84.925466	-84.925466	-84.925466	0.001682	0.053642	2.830000	0.005221	0.031977	86.692631
9047.357242	0.997100	0.018673	0.997275	56.388506	89.776568	0.000006	-85.000890	-85.000890	-85.000890	0.001570	0.052029	2.830000	0.005073	0.031523	86.739801
9177.680175	0.997556	0.021079	0.997779	56.141512	91.070907	0.000005	-85.071418	-85.071418	-85.071418	0.001440	0.050582	2.830000	0.004930	0.031075	86.786284
9309.880348	0.999973	0.022007	1.000216	55.903405	92.383869	0.000005	-85.137738	-85.137738	-85.137738	0.001360	0.049275	2.830000	0.004791	0.030633	86.832093
9443.984802	1.002334	0.020471	1.002543	55.665620	93.715715	0.000005	-85.203138	-85.203138	-85.203138	0.001361	0.048006	2.830000	0.004655	0.030198	86.877243
9580.020968	1.002627	0.017564	1.002781	55.419195	95.066725	0.000005	-85.270808	-85.270808	-85.270808	0.001404	0.046676	2.830000	0.004524	0.029769	86.921752
9718.016671	1.000612	0.015604	1.000734	55.162534	96.437185	0.000005	-85.341101	-85.341101	-85.341101	0.001416	0.045277	2.830000	0.004396	0.029346	86.965628
9858.000137	0.998114	0.016107	0.998244	54.903180	97.827383	0.000004	-85.411183	-85.411183	-85.411183	0.001353	0.043892	2.830000	0.004272	0.028929	87.008875
10000.000000	0.997438	0.018352	0.997607	54.651338	99.237600	0.000004	-85.477570	-85.477570	-85.477570	0.001241	0.042623	2.830000	0.004151	0.028517	87.051498
10144.045304	0.999209	0.019960	0.999408	54.410284	100.668114	0.000004	-85.539373	-85.539373	-85.539373	0.001152	0.041494	2.830000	0.004034	0.028112	87.093503
10290.165513	1.001689	0.019131	1.001872	54.172829	102.119210	0.000004	-85.599209	-85.599209	-85.599209	0.001136	0.040427	2.830000	0.003920	0.027713	87.134904
10438.390514	1.002402	0.016463	1.002537	53.928102	103.591187	0.000004	-85.660692	-85.660692	-85.660692	0.001172	0.039323	2.830000	0.003809	0.027319	87.175715
10588.750628	1.000634	0.014447	1.000739	53.672478	105.084356	0.000004	-85.724827	-85.724827	-85.724827	0.001188	0.038153	2.830000	0.003702	0.026931	87.215947
10741.276608	0.998262	0.014939	0.998373	53.413671	106.599029	0.000003	-85.788942	-85.788942	-85.788942	0.001135	0.036990	2.830000	0.003597	0.026548	87.255604
10895.999653	0.997841	0.017129	0.997988	53.162986	108.135514	0.000003	-85.849487	-85.849487	-85.849487	0.001038	0.035930	2.830000	0.003496	0.026171	87.294689
11052.951411	0.999819	0.018326	0.999987	52.922932	109.694116	0.000003	-85.905894	-85.905894	-85.905894	0.000970	0.034986	2.830000	0.003397	0.025799	87.333209
11212.163986	1.001933	0.016922	1.002076	52.683980	111.275145	0.000003	-85.961266	-85.961266	-85.961266	0.000973	0.034075	2.830000	0.003301	0.025432	87.371178
11373.669943	1.001727	0.014308	1.001830	52.435206	112.878932	0.000003	-86.018887	-86.018887	-86.018887	0.001007	0.033113	2.830000	0.003208	0.025071	87.408607
11537.502317	0.999471	0.013341	0.999560	52.177202	114.505813	0.000003	-86.078382	-86.078382	-86.078382	0.000998	0.032109	2.830000	0.003117	0.024715	87.445504
11703.694619	0.997940	0.014913	0.998052	51.921839	116.156125	0.000003	-86.136142	-86.136142	-86.136142	0.000925	0.031155	2.830000	0.003029	0.024364	87.481872
11872.280844	0.999044	0.016755	0.999185	51.677877	117.830198	0.000003	-86.189754	-86.189754	-86.189754	0.000848	0.030309	2.830000	0.002944	0.024018	87.517715
12043.295474	1.001336	0.016222	1.001467	51.439512	119.528365	0.000002	-86.241084	-86.241084	-86.241084	0.000832	0.029524	2.830000	0.002861	0.023676	87.553044
12216.773490	1.001786	0.013764	1.001881	51.193510	121.250976	0.000002	-86.293912	-86.293912	-86.293912	0.000862	0.028708	2.830000	0.002780	0.023340	87.587871
12392.750375	0.999810	0.012437	0.999887	50.936770	122.998392	0.000002	-86.348943	-86.348943	-86.348943	0.000865	0.027846	2.830000	0.002701	0.023008	87.622203
12571.262124	0.998169	0.013775	0.998264	50.680985	124.770974	0.000002	-86.402829	-86.402829	-86.402829	0.000804	0.027016	2.830000	0.002625	0.022682	87.656044
12752.345251	0.999184	0.015561	0.999305	50.436664	126.569079	0.000002	-86.452831	-86.452831	-86.452831	0.000736	0.026280	2.830000	0.002551	0.022359	87.689397
12936.036796	1.001346	0.014906	1.001457	50.197749	128.393067	0.000002	-86.500754	-86.500754	-86.500754	0.000725	0.025596	2.830000	0.002479	0.022042	87.722273
13122.374331	1.001425	0.012522	1.001503	49.950089	130.243314	0.000002	-86.550352	-86.550352	-86.550352	0.000754	0.024880	2.830000	0.002409	0.021729	87.754682
13311.395971	0.999330	0.011768	0.999399	49.692708	132.120204	0.000002	-86.601716	-86.601716	-86.601716	0.000745	0.024129	2.830000	0.002341	0.021420	87.786630
13503.140379	0.998360	0.013497	0.998451	49.439787	134.024126	0.000002	-86.651130	-86.651130	-86.651130	0.000682	0.023425	2.830000	0.002275	0.021116	87.818120
13697.646775	1.000049	0.014606	1.000156	49.198521	135.955461	0.000002	-86.696923	-86.696923	-86.696923	0.000635	0.022803	2.830000	0.002211	0.020816	87.849158
13894.954944	1.001592	0.012985	1.001676	48.957061	137.914599	0.000002	-86.742186	-86.742186	-86.742186	0.000647	0.022196	2.830000	0.002148	0.020520	87.879754
14095.105244	1.000407	0.011084	1.000469	48.703810	139.901946	0.000002	-86.789703	-86.789703	-86.789703	0.000665	0.021547	2.830000	0.002088	0.020228	87.909915
14298.138616	0.998571	0.011855	0.998641	48.447289	141.917915	0.000001	-86.837260	-86.837260	-86.837260	0.000627	0.020901	2.830000	0.002029	0.019941	87.939646
14504.096588	0.999316	0.013586	0.999408	48.201834	143.962915	0.000001	-86.881481	-86.881481	-86.881481	0.000570	0.020326	2.830000	0.001972	0.019658	87.968950
14713.021288	1.001260	0.012836	1.001342	47.961965	146.037358	0.000001	-86.923823	-86.923823	-86.923823	0.000566	0.019792	2.830000	0.001916	0.019379	87.997836
14924.955451	1.000810	0.010708	1.000867	47.711915	148.141668	0.000001	-86.967952	-86.967952	-86.967952	0.000588	0.019227	2.830000	0.001862	0.019103	88.026311
15139.942425	0.998856	0.010905	0.998916	47.454980	150.276285	0.000001	-87.012967	-87.012967	-87.012967	0.000565	0.018649	2.830000	0.001809	0.018832	88.054381
15358.026185	0.999183	0.012678	0.999263	47.207710	152.441644	0.000001	-87.055133	-87.055133	-87.055133	0.000512	0.018129	2.830000	0.001758	0.018564	88.082049
15579.251340	1.001102	0.012184	1.001176	46.967688	154.638179	0.000001	-87.095141	-87.095141	-87.095141	0.000503	0.017652	2.830000	0.001709	0.018301	88.109322
15803.663140	1.000725	0.010132	1.000777	46.717925	156.866343	0.000001	-87.136743	-87.136743	-87.136743	0.000524	0.017149	2.830000	0.001661	0.018041	88.136207
16031.307485	0.998875	0.010437	0.998930	46.461423	159.126596	0.000001	-87.179153	-87.179153	-87.179153	0.000501	0.016635	2.830000	0.001614	0.017785	88.162709
16262.230941	0.999467	0.012072	0.999539	46.215336	161.419401	0.000001	-87.218723	-87.218723	-87.218723	0.000454	0.016175	2.830000	0.001568	0.017532	88.188833
16496.480741	1.001175	0.011164	1.001238	45.974451	163.745219	0.000001	-87.256690	-87.256690	-87.256690	0.000455	0.015747	2.830000	0.001524	0.017283	88.214583
16734.104799	1.000233	0.009422	1.000277	45.722170	166.104529	0.000001	-87.296484	-87.296484	-87.296484	0.000470	0.015289	2.830000	0.001481	0.017037	88.239968
16975.151720	0.998812	0.010420	0.998866	45.467436	168.497819	0.000001	-87.336160	-87.336160	-87.336160	0.000437	0.014837	2.830000	0.001439	0.016795	88.264991
17219.670809	1.000170	0.011465	1.000235	45.224766	170.925575	0.000001	-87.372853	-87.372853	-87.372853	0.000404	0.014438	2.830000	0.001398	0.016557	88.289656
17467.712080	1.001068	0.009773	1.001116	44.980456	173.388289	0.000001	-87.409393	-87.409393	-87.409393	0.000419	0.014045	2.830000	0.001359	0.016322	88.313970
17719.326270	0.999383	0.009095	0.999424	44.724797	175.886470	0.000001	-87.447609	-87.447609	-87.447609	0.000416	0.013626	2.830000	0.001321	0.016090	88.337939
17974.564843	0.999277	0.010698	0.999334	44.475702	178.420631	0.000001	-87.483983	-87.483983	-87.483983	0.000376	0.013240	2.830000	0.001283	0.015861	88.361566
18233.480009	1.000966	0.010195	1.001018	44.234669	180.991284	0.000001	-87.518346	-87.518346	-87.518346	0.000371	0.012889	2.830000	0.001247	0.015636	88.384855
18496.124725	1.000133	0.008566	1.000170	43.982821	183.598956	0.000001	-87.554256	-87.554256	-87.554256	0.000384	0.012516	2.830000	0.001212	0.015414	88.407814
18762.552716	0.999000	0.009681	0.999047	43.729333	186.244186	0.000001	-87.589916	-87.589916	-87.589916	0.000354	0.012149	2.830000	0.001178	0.015195	88.430445
19032.818477	1.000547	0.010170	1.000599	43.487563	188.927511	0.000001	-87.622954	-87.622954	-87.622954	0.000334	0.011825	2.830000	0.001145	0.014979	88.452754
19306.977289	1.000551	0.008389	1.000587	43.239357	191.649477	0.000001	-87.656702	-87.656702	-87.656702	0.000350	0.011492	2.830000	0.001112	0.014767	88.474745
19585.085230	0.999055	0.008902	0.999095	42.984368	194.410646	0.000001	-87.691136	-87.691136	-87.691136	0.000330	0.011151	2.830000	0.001081	0.014557	88.496424
19867.199185	1.000257	0.009843	1.000305	42.741044	197.211582	0.000001	-87.723048	-87.723048	-87.723048	0.000305	0.010850	2.830000	0.001050	0.014350	88.517793
20000.000000	1.000876	0.009192	1.000918	42.628076	198.530076	0.000001	-87.737707	-87.737707	-87.737707	0.000310	0.010713	2.830000	0.001037	0.014255	88.527643
