Freq (hertz)	Ra (norm)	Xa (norm)	Za (norm)	SPL (dB)	Ze (ohms)	Xd (mm) 	WPhase (deg)	UPhase (deg)	CPhase (deg)	Delay (msec)	Efficiency (%)	Ein (volts)	Pin (watts)	Iin (amps)	ZePhase (deg)

10.000000	0.000117	0.012973	0.012974	29.740525	2.664467	1.689465	-12.783352	-12.783352	-12.783352	3.625126	0.000420	2.830000	2.946851	1.062126	11.367616
10.144045	0.000120	0.013160	0.013161	30.245754	2.666417	1.689577	-12.971423	-12.971423	-12.971423	3.628444	0.000446	2.830000	2.942963	1.061349	11.534101
10.290166	0.000124	0.013350	0.013350	30.751232	2.668430	1.689692	-13.162381	-13.162381	-13.162381	3.631865	0.000473	2.830000	2.938961	1.060549	11.703106
10.438391	0.000127	0.013542	0.013543	31.256966	2.670506	1.689810	-13.356274	-13.356274	-13.356274	3.635393	0.000502	2.830000	2.934841	1.059724	11.874673
10.588751	0.000131	0.013737	0.013738	31.762964	2.672647	1.689932	-13.553155	-13.553155	-13.553155	3.639031	0.000533	2.830000	2.930601	1.058875	12.048844
10.741277	0.000135	0.013935	0.013935	32.269234	2.674857	1.690057	-13.753074	-13.753074	-13.753074	3.642783	0.000566	2.830000	2.926238	1.058000	12.225664
10.896000	0.000139	0.014136	0.014136	32.775784	2.677137	1.690185	-13.956085	-13.956085	-13.956085	3.646653	0.000601	2.830000	2.921746	1.057099	12.405176
11.052951	0.000143	0.014339	0.014340	33.282624	2.679490	1.690318	-14.162243	-14.162243	-14.162243	3.650644	0.000639	2.830000	2.917123	1.056171	12.587426
11.212164	0.000147	0.014546	0.014546	33.789762	2.681919	1.690453	-14.371603	-14.371603	-14.371603	3.654761	0.000678	2.830000	2.912365	1.055215	12.772460
11.373670	0.000151	0.014755	0.014756	34.297208	2.684425	1.690593	-14.584221	-14.584221	-14.584221	3.659008	0.000720	2.830000	2.907467	1.054229	12.960326
11.537502	0.000155	0.014968	0.014968	34.804970	2.687013	1.690736	-14.800157	-14.800157	-14.800157	3.663389	0.000765	2.830000	2.902426	1.053214	13.151072
11.703695	0.000160	0.015183	0.015184	35.313059	2.689684	1.690884	-15.019469	-15.019469	-15.019469	3.667909	0.000813	2.830000	2.897237	1.052168	13.344747
11.872281	0.000165	0.015402	0.015403	35.821486	2.692442	1.691035	-15.242219	-15.242219	-15.242219	3.672574	0.000863	2.830000	2.891896	1.051091	13.541402
12.043295	0.000169	0.015624	0.015625	36.330260	2.695289	1.691191	-15.468470	-15.468470	-15.468470	3.677387	0.000917	2.830000	2.886398	1.049980	13.741088
12.216773	0.000174	0.015849	0.015850	36.839392	2.698229	1.691351	-15.698284	-15.698284	-15.698284	3.682354	0.000975	2.830000	2.880740	1.048836	13.943859
12.392750	0.000179	0.016077	0.016078	37.348894	2.701266	1.691516	-15.931729	-15.931729	-15.931729	3.687481	0.001036	2.830000	2.874915	1.047657	14.149767
12.571262	0.000185	0.016308	0.016309	37.858777	2.704403	1.691685	-16.168872	-16.168872	-16.168872	3.692774	0.001101	2.830000	2.868919	1.046442	14.358868
12.752345	0.000190	0.016543	0.016544	38.369054	2.707643	1.691859	-16.409781	-16.409781	-16.409781	3.698237	0.001170	2.830000	2.862748	1.045189	14.571218
12.936037	0.000195	0.016782	0.016783	38.879736	2.710991	1.692037	-16.654527	-16.654527	-16.654527	3.703877	0.001244	2.830000	2.856395	1.043899	14.786876
13.122374	0.000201	0.017023	0.017024	39.390837	2.714450	1.692221	-16.903183	-16.903183	-16.903183	3.709702	0.001323	2.830000	2.849856	1.042569	15.005899
13.311396	0.000207	0.017268	0.017270	39.902371	2.718024	1.692410	-17.155824	-17.155824	-17.155824	3.715716	0.001407	2.830000	2.843125	1.041198	15.228349
13.503140	0.000213	0.017517	0.017518	40.414350	2.721718	1.692604	-17.412525	-17.412525	-17.412525	3.721928	0.001496	2.830000	2.836195	1.039784	15.454288
13.697647	0.000219	0.017769	0.017771	40.926788	2.725537	1.692803	-17.673367	-17.673367	-17.673367	3.728344	0.001591	2.830000	2.829063	1.038327	15.683778
13.894955	0.000226	0.018025	0.018027	41.439702	2.729485	1.693007	-17.938429	-17.938429	-17.938429	3.734973	0.001693	2.830000	2.821720	1.036826	15.916884
14.095105	0.000232	0.018285	0.018286	41.953106	2.733567	1.693218	-18.207795	-18.207795	-18.207795	3.741821	0.001801	2.830000	2.814162	1.035277	16.153673
14.298139	0.000239	0.018548	0.018550	42.467016	2.737789	1.693434	-18.481550	-18.481550	-18.481550	3.748898	0.001917	2.830000	2.806381	1.033681	16.394214
14.504097	0.000246	0.018815	0.018817	42.981447	2.742155	1.693656	-18.759781	-18.759781	-18.759781	3.756212	0.002040	2.830000	2.798371	1.032035	16.638575
14.713021	0.000253	0.019086	0.019088	43.496419	2.746672	1.693884	-19.042580	-19.042580	-19.042580	3.763771	0.002172	2.830000	2.790126	1.030338	16.886828
14.924955	0.000260	0.019361	0.019363	44.011946	2.751345	1.694118	-19.330038	-19.330038	-19.330038	3.771586	0.002312	2.830000	2.781637	1.028588	17.139047
15.139942	0.000268	0.019640	0.019642	44.528049	2.756181	1.694358	-19.622252	-19.622252	-19.622252	3.779667	0.002462	2.830000	2.772899	1.026783	17.395307
15.358026	0.000275	0.019923	0.019925	45.044746	2.761187	1.694605	-19.919321	-19.919321	-19.919321	3.788023	0.002622	2.830000	2.763902	1.024922	17.655685
15.579251	0.000283	0.020210	0.020212	45.562056	2.766369	1.694859	-20.221346	-20.221346	-20.221346	3.796666	0.002793	2.830000	2.754641	1.023002	17.920260
15.803663	0.000292	0.020501	0.020503	46.080000	2.771734	1.695120	-20.528431	-20.528431	-20.528431	3.805607	0.002976	2.830000	2.745106	1.021021	18.189115
16.031307	0.000300	0.020796	0.020798	46.598599	2.777291	1.695388	-20.840686	-20.840686	-20.840686	3.814858	0.003172	2.830000	2.735291	1.018978	18.462332
16.262231	0.000309	0.021095	0.021098	47.117874	2.783047	1.695663	-21.158220	-21.158220	-21.158220	3.824432	0.003381	2.830000	2.725185	1.016871	18.739997
16.496481	0.000318	0.021399	0.021401	47.637848	2.789011	1.695945	-21.481150	-21.481150	-21.481150	3.834341	0.003605	2.830000	2.714781	1.014697	19.022198
16.734105	0.000327	0.021707	0.021710	48.158546	2.795191	1.696235	-21.809595	-21.809595	-21.809595	3.844601	0.003844	2.830000	2.704069	1.012453	19.309027
16.975152	0.000337	0.022020	0.022022	48.679990	2.801597	1.696533	-22.143676	-22.143676	-22.143676	3.855225	0.004100	2.830000	2.693041	1.010138	19.600576
17.219671	0.000346	0.022337	0.022340	49.202207	2.808240	1.696838	-22.483521	-22.483521	-22.483521	3.866229	0.004375	2.830000	2.681687	1.007749	19.896942
17.467712	0.000356	0.022658	0.022661	49.725223	2.815128	1.697152	-22.829262	-22.829262	-22.829262	3.877630	0.004669	2.830000	2.669997	1.005283	20.198222
17.719326	0.000367	0.022985	0.022988	50.249066	2.822274	1.697474	-23.181035	-23.181035	-23.181035	3.889443	0.004984	2.830000	2.657961	1.002738	20.504520
17.974565	0.000377	0.023316	0.023319	50.773763	2.829689	1.697805	-23.538980	-23.538980	-23.538980	3.901689	0.005322	2.830000	2.645568	1.000110	20.815938
18.233480	0.000388	0.023651	0.023655	51.299344	2.837385	1.698145	-23.903243	-23.903243	-23.903243	3.914385	0.005684	2.830000	2.632808	0.997397	21.132586
18.496125	0.000400	0.023992	0.023995	51.825841	2.845375	1.698493	-24.273976	-24.273976	-24.273976	3.927551	0.006073	2.830000	2.619671	0.994596	21.454574
18.762553	0.000411	0.024337	0.024341	52.353285	2.853674	1.698851	-24.651335	-24.651335	-24.651335	3.941211	0.006490	2.830000	2.606143	0.991704	21.782016
19.032818	0.000423	0.024688	0.024691	52.881710	2.862296	1.699218	-25.035484	-25.035484	-25.035484	3.955384	0.006939	2.830000	2.592215	0.988717	22.115030
19.306977	0.000435	0.025043	0.025047	53.411150	2.871256	1.699594	-25.426592	-25.426592	-25.426592	3.970097	0.007420	2.830000	2.577872	0.985631	22.453739
19.585085	0.000448	0.025404	0.025408	53.941641	2.880571	1.699981	-25.824834	-25.824834	-25.824834	3.985375	0.007938	2.830000	2.563104	0.982444	22.798268
19.867199	0.000461	0.025770	0.025774	54.473222	2.890258	1.700377	-26.230395	-26.230395	-26.230395	4.001244	0.008496	2.830000	2.547898	0.979151	23.148746
20.153377	0.000474	0.026141	0.026145	55.005932	2.900337	1.700784	-26.643464	-26.643464	-26.643464	4.017733	0.009096	2.830000	2.532239	0.975749	23.505307
20.443677	0.000488	0.026517	0.026521	55.539811	2.910827	1.701202	-27.064240	-27.064240	-27.064240	4.034873	0.009742	2.830000	2.516114	0.972232	23.868089
20.738158	0.000502	0.026899	0.026903	56.074903	2.921750	1.701630	-27.492931	-27.492931	-27.492931	4.052696	0.010438	2.830000	2.499510	0.968598	24.237237
21.036882	0.000517	0.027286	0.027291	56.611252	2.933128	1.702069	-27.929751	-27.929751	-27.929751	4.071237	0.011189	2.830000	2.482412	0.964840	24.612896
21.339908	0.000532	0.027679	0.027684	57.148905	2.944985	1.702519	-28.374927	-28.374927	-28.374927	4.090534	0.012000	2.830000	2.464804	0.960956	24.995220
21.647300	0.000547	0.028077	0.028083	57.687910	2.957348	1.702981	-28.828695	-28.828695	-28.828695	4.110626	0.012875	2.830000	2.446671	0.956938	25.384368
21.959119	0.000563	0.028481	0.028487	58.228319	2.970245	1.703455	-29.291301	-29.291301	-29.291301	4.131554	0.013820	2.830000	2.427998	0.952783	25.780502
22.275430	0.000580	0.028891	0.028897	58.770186	2.983705	1.703940	-29.763004	-29.763004	-29.763004	4.153366	0.014843	2.830000	2.408768	0.948485	26.183793
22.596297	0.000596	0.029307	0.029313	59.313565	2.997761	1.704438	-30.244075	-30.244075	-30.244075	4.176108	0.015950	2.830000	2.388964	0.944038	26.594415
22.921786	0.000614	0.029729	0.029736	59.858516	3.012447	1.704948	-30.734797	-30.734797	-30.734797	4.199835	0.017149	2.830000	2.368568	0.939436	27.012551
23.251963	0.000631	0.030157	0.030164	60.405099	3.027801	1.705471	-31.235469	-31.235469	-31.235469	4.224601	0.018450	2.830000	2.347563	0.934672	27.438388
23.586897	0.000650	0.030591	0.030598	60.953379	3.043863	1.706007	-31.746406	-31.746406	-31.746406	4.250467	0.019861	2.830000	2.325931	0.929740	27.872122
23.926655	0.000669	0.031032	0.031039	61.503424	3.060676	1.706556	-32.267936	-32.267936	-32.267936	4.277498	0.021393	2.830000	2.303651	0.924632	28.313956
24.271307	0.000688	0.031478	0.031486	62.055304	3.078289	1.707118	-32.800409	-32.800409	-32.800409	4.305765	0.023060	2.830000	2.280705	0.919342	28.764100
24.620924	0.000708	0.031931	0.031939	62.609093	3.096752	1.707694	-33.344192	-33.344192	-33.344192	4.335344	0.024874	2.830000	2.257072	0.913861	29.222770
24.975577	0.000728	0.032391	0.032399	63.164869	3.116121	1.708283	-33.899672	-33.899672	-33.899672	4.366317	0.026851	2.830000	2.232732	0.908180	29.690194
25.335338	0.000750	0.032857	0.032866	63.722716	3.136457	1.708887	-34.467260	-34.467260	-34.467260	4.398772	0.029008	2.830000	2.207662	0.902292	30.166604
25.700282	0.000771	0.033330	0.033339	64.282718	3.157826	1.709504	-35.047391	-35.047391	-35.047391	4.432808	0.031363	2.830000	2.181842	0.896186	30.652245
26.070482	0.000794	0.033810	0.033819	64.844967	3.180301	1.710136	-35.640525	-35.640525	-35.640525	4.468529	0.033940	2.830000	2.155247	0.889853	31.147367
26.446016	0.000817	0.034296	0.034306	65.409558	3.203962	1.710782	-36.247153	-36.247153	-36.247153	4.506049	0.036761	2.830000	2.127855	0.883281	31.652232
26.826958	0.000840	0.034790	0.034800	65.976594	3.228895	1.711443	-36.867796	-36.867796	-36.867796	4.545495	0.039856	2.830000	2.099643	0.876461	32.167110
27.213388	0.000865	0.035291	0.035301	66.546181	3.255197	1.712118	-37.503008	-37.503008	-37.503008	4.587003	0.043255	2.830000	2.070584	0.869379	32.692279
27.605384	0.000890	0.035798	0.035810	67.118431	3.282975	1.712807	-38.153382	-38.153382	-38.153382	4.630722	0.046995	2.830000	2.040654	0.862023	33.228029
28.003026	0.000916	0.036314	0.036325	67.693463	3.312346	1.713510	-38.819551	-38.819551	-38.819551	4.676817	0.051116	2.830000	2.009827	0.854379	33.774658
28.406397	0.000942	0.036836	0.036848	68.271404	3.343441	1.714228	-39.502193	-39.502193	-39.502193	4.725468	0.055665	2.830000	1.978076	0.846433	34.332471
28.815578	0.000970	0.037366	0.037379	68.852387	3.376405	1.714959	-40.202036	-40.202036	-40.202036	4.776874	0.060696	2.830000	1.945374	0.838170	34.901783
29.230652	0.000998	0.037904	0.037917	69.436553	3.411402	1.715704	-40.919860	-40.919860	-40.919860	4.831253	0.066272	2.830000	1.911694	0.829571	35.482916
29.651706	0.001027	0.038449	0.038463	70.024052	3.448614	1.716462	-41.656508	-41.656508	-41.656508	4.888850	0.072463	2.830000	1.877006	0.820620	36.076196
30.078825	0.001056	0.039003	0.039017	70.615044	3.488246	1.717231	-42.412888	-42.412888	-42.412888	4.949931	0.079354	2.830000	1.841283	0.811296	36.681954
30.512097	0.001087	0.039564	0.039579	71.209696	3.530530	1.718012	-43.189982	-43.189982	-43.189982	5.014794	0.087042	2.830000	1.804495	0.801579	37.300521
30.951609	0.001119	0.040133	0.040149	71.808188	3.575729	1.718803	-43.988854	-43.988854	-43.988854	5.083772	0.095639	2.830000	1.766612	0.791447	37.932226
31.397452	0.001151	0.040710	0.040727	72.410712	3.624143	1.719602	-44.810660	-44.810660	-44.810660	5.157234	0.105280	2.830000	1.727606	0.780874	38.577386
31.849718	0.001184	0.041296	0.041313	73.017470	3.676113	1.720407	-45.656658	-45.656658	-45.656658	5.235592	0.116122	2.830000	1.687446	0.769835	39.236307
32.308498	0.001219	0.041890	0.041908	73.628679	3.732034	1.721215	-46.528220	-46.528220	-46.528220	5.319310	0.128351	2.830000	1.646104	0.758300	39.909265
32.773887	0.001254	0.042493	0.042511	74.244569	3.792361	1.722025	-47.426848	-47.426848	-47.426848	5.408908	0.142190	2.830000	1.603552	0.746237	40.596502
33.245979	0.001291	0.043104	0.043123	74.865385	3.857621	1.722832	-48.354189	-48.354189	-48.354189	5.504971	0.157905	2.830000	1.559761	0.733613	41.298200
33.724872	0.001328	0.043724	0.043744	75.491390	3.928432	1.723630	-49.312055	-49.312055	-49.312055	5.608160	0.175816	2.830000	1.514706	0.720389	42.014466
34.210663	0.001367	0.044353	0.044374	76.122864	4.005521	1.724415	-50.302442	-50.302442	-50.302442	5.719222	0.196310	2.830000	1.468364	0.706525	42.745293
34.703452	0.001406	0.044991	0.045013	76.760106	4.089747	1.725179	-51.327560	-51.327560	-51.327560	5.839006	0.219862	2.830000	1.420714	0.691974	43.490524
35.203338	0.001447	0.045638	0.045661	77.403433	4.182138	1.725913	-52.389858	-52.389858	-52.389858	5.968479	0.247050	2.830000	1.371741	0.676687	44.249787
35.710426	0.001489	0.046294	0.046318	78.053186	4.283928	1.726606	-53.492062	-53.492062	-53.492062	6.108743	0.278590	2.830000	1.321435	0.660609	45.022420
36.224818	0.001532	0.046960	0.046985	78.709727	4.396615	1.727244	-54.637213	-54.637213	-54.637213	6.261060	0.315374	2.830000	1.269792	0.643677	45.807358
36.746619	0.001576	0.047635	0.047661	79.373442	4.522037	1.727810	-55.828718	-55.828718	-55.828718	6.426878	0.358517	2.830000	1.216822	0.625824	46.602976
37.275937	0.001622	0.048320	0.048347	80.044743	4.662468	1.728282	-57.070402	-57.070402	-57.070402	6.607863	0.409429	2.830000	1.162544	0.606975	47.406874
37.812880	0.001669	0.049015	0.049043	80.724065	4.820760	1.728635	-58.366578	-58.366578	-58.366578	6.805940	0.469907	2.830000	1.106998	0.587044	48.215559
38.357556	0.001718	0.049720	0.049749	81.411868	5.000533	1.728834	-59.722121	-59.722121	-59.722121	7.023334	0.542259	2.830000	1.050244	0.565940	49.023990
38.910079	0.001767	0.050435	0.050466	82.108638	5.206450	1.728838	-61.142567	-61.142567	-61.142567	7.262630	0.629475	2.830000	0.992374	0.543557	49.824906
39.470560	0.001819	0.051160	0.051192	82.814883	5.444616	1.728595	-62.634218	-62.634218	-62.634218	7.526831	0.735464	2.830000	0.933518	0.519780	50.607814
40.039115	0.001871	0.051895	0.051929	83.531130	5.723172	1.728038	-64.204280	-64.204280	-64.204280	7.819440	0.865375	2.830000	0.873858	0.494481	51.357428
40.615860	0.001926	0.052641	0.052676	84.257917	6.053197	1.727083	-65.861014	-65.861014	-65.861014	8.144542	1.026035	2.830000	0.813641	0.467522	52.051212
41.200912	0.001982	0.053398	0.053435	84.995787	6.450130	1.725625	-67.613924	-67.613924	-67.613924	8.506912	1.226540	2.830000	0.753203	0.438751	52.655384
41.794392	0.002039	0.054165	0.054204	85.745270	6.936057	1.723527	-69.473982	-69.473982	-69.473982	8.912130	1.479008	2.830000	0.692998	0.408013	53.118197
42.396421	0.002098	0.054944	0.054984	86.506865	7.543551	1.720615	-71.453885	-71.453885	-71.453885	9.366700	1.799466	2.830000	0.633627	0.375155	53.358161
43.007121	0.002159	0.055734	0.055775	87.281005	8.322281	1.716668	-73.568363	-73.568363	-73.568363	9.878191	2.208656	2.830000	0.575896	0.340051	53.242437
43.626619	0.002222	0.056534	0.056578	88.068013	9.350730	1.711397	-75.834531	-75.834531	-75.834531	10.455347	2.732116	2.830000	0.520871	0.302650	52.544957
44.255040	0.002286	0.057347	0.057392	88.868038	10.756863	1.704431	-78.272284	-78.272284	-78.272284	11.108171	3.397913	2.830000	0.469962	0.263088	50.860360
44.892513	0.002352	0.058171	0.058218	89.680961	12.750302	1.695291	-80.904731	-80.904731	-80.904731	11.847916	4.228569	2.830000	0.425029	0.221956	47.417371
45.539168	0.002421	0.059007	0.059056	90.506269	15.634939	1.683356	-83.758631	-83.758631	-83.758631	12.686901	5.221627	2.830000	0.388505	0.181005	40.673267
46.195138	0.002491	0.059854	0.059906	91.342879	19.511288	1.667823	-86.864776	-86.864776	-86.864776	13.638019	6.315184	2.830000	0.363556	0.145044	27.662754
46.860558	0.002563	0.060714	0.060768	92.188894	22.516600	1.647660	-90.258219	-90.258219	-90.258219	14.713700	7.352040	2.830000	0.354239	0.125685	5.173890
47.535562	0.002637	0.061586	0.061643	93.041288	20.427305	1.621553	-93.978168	-93.978168	-93.978168	15.924020	8.092555	2.830000	0.365661	0.138540	-21.149056
48.220290	0.002714	0.062471	0.062530	93.895498	15.378642	1.587850	-98.067239	-98.067239	-98.067239	17.273510	8.326660	2.830000	0.404046	0.184021	-39.118089
48.914880	0.002792	0.063368	0.063430	94.744941	11.285414	1.544530	-102.569638	-102.569638	-102.569638	18.756185	8.018740	2.830000	0.476630	0.250766	-47.807534
49.619476	0.002873	0.064278	0.064342	95.580491	8.549652	1.489217	-107.527691	-107.527691	-107.527691	20.348486	7.323742	2.830000	0.591157	0.331008	-50.870798
50.334221	0.002957	0.065201	0.065268	96.390028	6.726725	1.419287	-112.976052	-112.976052	-112.976052	22.000547	6.461827	2.830000	0.754766	0.420710	-50.659109
51.059262	0.003042	0.066137	0.066207	97.158271	5.474749	1.332141	-118.933201	-118.933201	-118.933201	23.627758	5.601692	2.830000	0.972010	0.516919	-48.359908
51.794747	0.003130	0.067087	0.067160	97.867199	4.591022	1.225686	-125.390612	-125.390612	-125.390612	25.107149	4.830602	2.830000	1.242042	0.616421	-44.603105
52.540826	0.003221	0.068050	0.068126	98.497408	3.956742	1.099017	-132.301594	-132.301594	-132.301594	26.285344	4.176456	2.830000	1.555619	0.715235	-39.776756
53.297652	0.003315	0.069027	0.069106	99.030552	3.499591	0.953154	-139.573850	-139.573850	-139.573850	27.003859	3.636467	2.830000	1.893395	0.808666	-34.173209
54.065379	0.003411	0.070017	0.070100	99.452548	3.173202	0.791509	-147.070880	-147.070880	-147.070880	27.139692	3.196017	2.830000	2.227390	0.891844	-28.053022
54.844166	0.003509	0.071022	0.071109	99.756608	2.946111	0.619749	-154.625534	-154.625534	-154.625534	26.646394	2.838087	2.830000	2.526444	0.960588	-21.664085
55.634170	0.003611	0.072041	0.072132	99.944861	2.795767	0.444939	-162.063736	-162.063736	-162.063736	25.573523	2.547085	2.830000	2.763974	1.012244	-15.235228
56.435554	0.003716	0.073075	0.073169	100.027810	2.705288	0.274322	-169.230680	-169.230680	-169.230680	24.051723	2.309987	2.830000	2.924338	1.046099	-8.959740
57.248482	0.003823	0.074123	0.074222	100.021887	2.661708	0.115092	-176.010279	-176.010279	-176.010279	22.251827	2.116367	2.830000	3.004859	1.063227	-2.981620
58.073119	0.003934	0.075186	0.075289	99.946185	2.655009	0.047685	177.667305	-182.332695	177.667305	20.340340	1.958049	2.830000	3.013400	1.065910	2.608454
58.909635	0.004048	0.076265	0.076372	99.819544	2.677506	0.171984	171.829157	-188.170843	171.829157	18.449740	1.828679	2.830000	2.963735	1.056954	7.767414
59.758201	0.004166	0.077358	0.077471	99.658630	2.723408	0.287299	166.469474	-193.530526	166.469474	16.668419	1.723339	2.830000	2.871184	1.039139	12.488481
60.618990	0.004286	0.078468	0.078585	99.477071	2.788449	0.387946	161.560938	-198.439062	161.560938	15.044705	1.638234	2.830000	2.749746	1.014901	16.788804
61.492178	0.004410	0.079593	0.079715	99.285363	2.869587	0.474730	157.064555	-202.935445	157.064555	13.597027	1.570439	2.830000	2.610805	0.986205	20.698935
62.377944	0.004538	0.080734	0.080861	99.091211	2.964741	0.549062	152.936826	-207.063174	152.936826	12.324513	1.517711	2.830000	2.462918	0.954552	24.255165
63.276469	0.004670	0.081891	0.082024	98.900030	3.072599	0.612457	149.134338	-210.865662	149.134338	11.215457	1.478348	2.830000	2.312157	0.921044	27.494570
64.187937	0.004805	0.083064	0.083203	98.715459	3.192454	0.666359	145.616350	-214.383650	145.616350	10.253139	1.451077	2.830000	2.162629	0.886465	30.452140
65.112534	0.004944	0.084255	0.084400	98.539813	3.324099	0.712071	142.346032	-217.653968	142.346032	9.419399	1.434979	2.830000	2.016990	0.851359	33.159321
66.050449	0.005087	0.085462	0.085613	98.374444	3.467744	0.750731	139.290846	-220.709154	139.290846	8.696634	1.429424	2.830000	1.876870	0.816092	35.643434
67.001875	0.005235	0.086686	0.086844	98.220020	3.623971	0.783317	136.422473	-223.577527	136.422473	8.068771	1.434030	2.830000	1.743205	0.780911	37.927596
67.967006	0.005386	0.087927	0.088092	98.076734	3.793706	0.810659	133.716481	-226.283519	133.716481	7.521633	1.448629	2.830000	1.616467	0.745972	40.030871
68.946038	0.005542	0.089187	0.089359	97.944456	3.978218	0.833461	131.151911	-228.848089	131.151911	7.042981	1.473238	2.830000	1.496830	0.711374	41.968536
69.939174	0.005703	0.090464	0.090643	97.822841	4.179136	0.852313	128.710837	-231.289163	128.710837	6.622384	1.508046	2.830000	1.384285	0.677174	43.752341
70.946615	0.005868	0.091758	0.091946	97.711408	4.398481	0.867716	126.377941	-233.622059	126.377941	6.251019	1.553392	2.830000	1.278713	0.643404	45.390728
71.968567	0.006038	0.093072	0.093267	97.609594	4.638726	0.880090	124.140145	-235.859855	124.140145	5.921459	1.609751	2.830000	1.179935	0.610081	46.888975
73.005241	0.006213	0.094404	0.094608	97.516794	4.902872	0.889795	121.986274	-238.013726	121.986274	5.627461	1.677715	2.830000	1.087742	0.577213	48.249235
74.056847	0.006393	0.095754	0.095967	97.432386	5.194558	0.897133	119.906771	-240.093229	119.906771	5.363782	1.757971	2.830000	1.001915	0.544801	49.470460
75.123601	0.006578	0.097124	0.097346	97.355749	5.518201	0.902367	117.893456	-242.106544	117.893456	5.126014	1.851267	2.830000	0.922237	0.512848	50.548178
76.205721	0.006768	0.098513	0.098745	97.286275	5.879186	0.905718	115.939317	-244.060683	115.939317	4.910449	1.958368	2.830000	0.848500	0.481359	51.474091
77.303429	0.006964	0.099921	0.100164	97.223381	6.284108	0.907382	114.038341	-245.961659	114.038341	4.713960	2.079987	2.830000	0.780508	0.450342	52.235434
78.416948	0.007166	0.101350	0.101603	97.166507	6.741092	0.907525	112.185364	-247.814636	112.185364	4.533907	2.216702	2.830000	0.718075	0.419813	52.814034
79.546508	0.007373	0.102798	0.103062	97.115125	7.260204	0.906296	110.375947	-249.624053	110.375947	4.368055	2.368824	2.830000	0.661029	0.389796	53.184944
80.692338	0.007587	0.104267	0.104543	97.068735	7.853971	0.903823	108.606274	-251.393726	108.606274	4.214509	2.536253	2.830000	0.609207	0.360327	53.314494
81.854673	0.007806	0.105756	0.106044	97.026871	8.538031	0.900221	106.873065	-253.126935	106.873065	4.071657	2.718277	2.830000	0.562457	0.331458	53.157524
83.033751	0.008032	0.107267	0.107567	96.989097	9.331876	0.895593	105.173496	-254.826504	105.173496	3.938130	2.913357	2.830000	0.520632	0.303262	52.653463
84.229813	0.008265	0.108798	0.109112	96.955008	10.259582	0.890030	103.505141	-256.494859	103.505141	3.812757	3.118906	2.830000	0.483593	0.275840	51.720829
85.443104	0.008504	0.110351	0.110679	96.924227	11.350161	0.883616	101.865914	-258.134086	101.865914	3.694542	3.331093	2.830000	0.451204	0.249336	50.249657
86.673872	0.008750	0.111926	0.112268	96.896406	12.636599	0.876425	100.254024	-259.745976	100.254024	3.582629	3.544735	2.830000	0.423332	0.223953	48.091617
87.922369	0.009003	0.113523	0.113879	96.871225	14.151330	0.868527	98.667934	-261.332066	98.667934	3.476290	3.753354	2.830000	0.399845	0.199981	45.048693
89.188849	0.009263	0.115142	0.115514	96.848387	15.913272	0.859984	97.106328	-262.893672	97.106328	3.374899	3.949435	2.830000	0.380610	0.177839	40.865016
90.473572	0.009531	0.116784	0.117172	96.827620	17.897618	0.850856	95.568078	-264.431922	95.568078	3.277921	4.124957	2.830000	0.365497	0.158122	35.236090
91.776802	0.009807	0.118449	0.118854	96.808677	19.979181	0.841196	94.052223	-265.947777	94.052223	3.184897	4.272130	2.830000	0.354370	0.141647	27.868829
93.098803	0.010090	0.120136	0.120559	96.791329	21.863347	0.831055	92.557940	-267.442060	92.557940	3.095434	4.384273	2.830000	0.347095	0.129440	18.643045
94.439848	0.010382	0.121848	0.122289	96.775369	23.093539	0.820480	91.084531	-268.915469	91.084531	3.009196	4.456625	2.830000	0.343533	0.122545	7.873312
95.800210	0.010682	0.123583	0.124044	96.760609	23.268112	0.809515	89.631399	-270.368601	89.631399	2.925895	4.486931	2.830000	0.343545	0.121626	-3.537051
97.180167	0.010991	0.125342	0.125823	96.746878	22.358036	0.798202	88.198039	-271.801961	88.198039	2.845284	4.475644	2.830000	0.346987	0.126576	-14.380836
98.580001	0.011309	0.127126	0.127628	96.734021	20.726695	0.786579	86.784021	-273.215979	86.784021	2.767153	4.425710	2.830000	0.353715	0.136539	-23.737508
100.000000	0.011636	0.128935	0.129459	96.721900	18.826994	0.774685	85.388978	-274.611022	85.388978	2.691322	4.342019	2.830000	0.363581	0.150316	-31.274304
101.440453	0.011972	0.130768	0.131315	96.710390	16.968570	0.762553	84.012600	-275.987400	84.012600	2.617637	4.230668	2.830000	0.376437	0.166779	-37.102037
102.901655	0.012318	0.132627	0.133198	96.699380	15.293825	0.750216	82.654618	-277.345382	82.654618	2.545969	4.098211	2.830000	0.392132	0.185042	-41.511989
104.383905	0.012674	0.134512	0.135108	96.688769	13.840782	0.737706	81.314805	-278.685195	81.314805	2.476204	3.951023	2.830000	0.410515	0.204468	-44.810445
105.887506	0.013040	0.136423	0.137044	96.678471	12.599397	0.725052	79.992961	-280.007039	79.992961	2.408249	3.794856	2.830000	0.431434	0.224614	-47.256173
107.412766	0.013417	0.138360	0.139009	96.668409	11.542941	0.712282	78.688912	-281.311088	78.688912	2.342021	3.634589	2.830000	0.454738	0.245171	-49.050216
108.959997	0.013804	0.140323	0.141001	96.658513	10.642078	0.699422	77.402502	-282.597498	77.402502	2.277451	3.474138	2.830000	0.480274	0.265926	-50.343821
110.529514	0.014203	0.142314	0.143021	96.648727	9.870160	0.686497	76.133589	-283.866411	76.133589	2.214480	3.316489	2.830000	0.507893	0.286723	-51.249787
112.121640	0.014613	0.144332	0.145070	96.638998	9.204672	0.673530	74.882045	-285.117955	74.882045	2.153056	3.163798	2.830000	0.537445	0.307453	-51.852469
113.736699	0.015035	0.146378	0.147148	96.629283	8.627178	0.660543	73.647746	-286.352254	73.647746	2.093135	3.017526	2.830000	0.568784	0.328033	-52.215462
115.375023	0.015469	0.148452	0.149255	96.619546	8.122765	0.647557	72.430574	-287.569426	72.430574	2.034678	2.878577	2.830000	0.601766	0.348404	-52.387227
117.036946	0.015915	0.150554	0.151393	96.609756	7.679415	0.634590	71.230413	-288.769587	71.230413	1.977651	2.747424	2.830000	0.636250	0.368518	-52.405116
118.722808	0.016375	0.152684	0.153560	96.599888	7.287422	0.621660	70.047148	-289.952852	70.047148	1.922024	2.624221	2.830000	0.672097	0.388340	-52.298256
120.432955	0.016847	0.154844	0.155758	96.589922	6.938918	0.608785	68.880660	-291.119340	68.880660	1.867770	2.508895	2.830000	0.709173	0.407845	-52.089617
122.167735	0.017333	0.157034	0.157987	96.579841	6.627487	0.595980	67.730829	-292.269171	67.730829	1.814863	2.401215	2.830000	0.747349	0.427010	-51.797503
123.927504	0.017833	0.159252	0.160248	96.569635	6.347862	0.583260	66.597531	-293.402469	66.597531	1.763280	2.300851	2.830000	0.786499	0.445819	-51.436647
125.712621	0.018347	0.161502	0.162540	96.559294	6.095693	0.570637	65.480637	-294.519363	65.480637	1.713000	2.207409	2.830000	0.826501	0.464262	-51.019016
127.523453	0.018876	0.163781	0.164865	96.548813	5.867364	0.558124	64.380013	-295.619987	64.380013	1.664001	2.120466	2.830000	0.867240	0.482329	-50.554412
129.360368	0.019420	0.166091	0.167223	96.538190	5.659846	0.545732	63.295518	-296.704482	63.295518	1.616264	2.039588	2.830000	0.908605	0.500014	-50.050926
131.223743	0.019980	0.168433	0.169614	96.527424	5.470590	0.533471	62.227005	-297.772995	62.227005	1.569768	1.964344	2.830000	0.950490	0.517312	-49.515284
133.113960	0.020556	0.170806	0.172038	96.516518	5.297436	0.521351	61.174323	-298.825677	61.174323	1.524493	1.894318	2.830000	0.992793	0.534221	-48.953110
135.031404	0.021148	0.173210	0.174497	96.505474	5.138542	0.509380	60.137313	-299.862687	60.137313	1.480421	1.829115	2.830000	1.035419	0.550740	-48.369138
136.976468	0.021757	0.175647	0.176990	96.494298	4.992331	0.497565	59.115809	-300.884191	59.115809	1.437531	1.768360	2.830000	1.078278	0.566869	-47.767369
138.949549	0.022384	0.178117	0.179518	96.482995	4.857446	0.485914	58.109640	-301.890360	58.109640	1.395804	1.711706	2.830000	1.121285	0.582611	-47.151204
140.951052	0.023028	0.180620	0.182082	96.471574	4.732710	0.474432	57.118631	-302.881369	57.118631	1.355219	1.658829	2.830000	1.164359	0.597966	-46.523543
142.981386	0.023691	0.183155	0.184681	96.460041	4.617103	0.463125	56.142599	-303.857401	56.142599	1.315756	1.609431	2.830000	1.207427	0.612938	-45.886868
145.040966	0.024373	0.185725	0.187317	96.448405	4.509731	0.451997	55.181358	-304.818642	55.181358	1.277394	1.563238	2.830000	1.250418	0.627532	-45.243312
147.130213	0.025074	0.188328	0.189990	96.436675	4.409814	0.441051	54.234714	-305.765286	54.234714	1.240112	1.519997	2.830000	1.293266	0.641750	-44.594709
149.249555	0.025796	0.190966	0.192701	96.424861	4.316662	0.430292	53.302473	-306.697527	53.302473	1.203889	1.479479	2.830000	1.335913	0.655599	-43.942642
151.399424	0.026537	0.193639	0.195449	96.412972	4.229668	0.419721	52.384434	-307.615566	52.384434	1.168704	1.441472	2.830000	1.378303	0.669083	-43.288480
153.580262	0.027300	0.196347	0.198236	96.401017	4.148292	0.409342	51.480394	-308.519606	51.480394	1.134535	1.405783	2.830000	1.420384	0.682208	-42.633408
155.792513	0.028085	0.199090	0.201061	96.389006	4.072055	0.399155	50.590145	-309.409855	50.590145	1.101360	1.372237	2.830000	1.462109	0.694981	-41.978450
158.036631	0.028892	0.201869	0.203926	96.376949	4.000530	0.389162	49.713480	-310.286520	49.713480	1.069157	1.340672	2.830000	1.503436	0.707406	-41.324496
160.313075	0.029722	0.204684	0.206831	96.364855	3.933333	0.379363	48.850186	-311.149814	48.850186	1.037904	1.310940	2.830000	1.544325	0.719492	-40.672314
162.622309	0.030576	0.207536	0.209776	96.352732	3.870122	0.369760	48.000049	-311.999951	48.000049	1.007579	1.282908	2.830000	1.584742	0.731243	-40.022570
164.964807	0.031453	0.210424	0.212762	96.340589	3.810587	0.360351	47.162856	-312.837144	47.162856	0.978160	1.256453	2.830000	1.624655	0.742668	-39.375841
167.341048	0.032356	0.213350	0.215790	96.328435	3.754450	0.351137	46.338390	-313.661610	46.338390	0.949623	1.231460	2.830000	1.664035	0.753772	-38.732623
169.751517	0.033284	0.216314	0.218859	96.316278	3.701458	0.342117	45.526434	-314.473566	45.526434	0.921949	1.207828	2.830000	1.702858	0.764564	-38.093344
172.196708	0.034239	0.219315	0.221972	96.304124	3.651383	0.333289	44.726772	-315.273228	44.726772	0.895113	1.185462	2.830000	1.741101	0.775049	-37.458370
174.677121	0.035221	0.222355	0.225127	96.291982	3.604018	0.324654	43.939186	-316.060814	43.939186	0.869095	1.164274	2.830000	1.778745	0.785235	-36.828015
177.193263	0.036230	0.225433	0.228326	96.279858	3.559174	0.316208	43.163460	-316.836540	43.163460	0.843873	1.144185	2.830000	1.815773	0.795128	-36.202543
179.745648	0.037268	0.228550	0.231568	96.267758	3.516679	0.307951	42.399377	-317.600623	42.399377	0.819426	1.125121	2.830000	1.852171	0.804737	-35.582180
182.334800	0.038336	0.231706	0.234856	96.255688	3.476375	0.299880	41.646722	-318.353278	41.646722	0.795731	1.107016	2.830000	1.887927	0.814066	-34.967110
184.961247	0.039433	0.234902	0.238189	96.243653	3.438118	0.291994	40.905280	-319.094720	40.905280	0.772769	1.089806	2.830000	1.923031	0.823125	-34.357489
187.625527	0.040562	0.238138	0.241568	96.231658	3.401776	0.284290	40.174838	-319.825162	40.174838	0.750519	1.073434	2.830000	1.957474	0.831918	-33.753440
190.328185	0.041722	0.241414	0.244993	96.219707	3.367228	0.276766	39.455183	-320.544817	39.455183	0.728960	1.057848	2.830000	1.991252	0.840454	-33.155064
193.069773	0.042915	0.244731	0.248465	96.207804	3.334362	0.269419	38.746107	-321.253893	38.746107	0.708073	1.042998	2.830000	2.024359	0.848738	-32.562435
195.850852	0.044142	0.248088	0.251985	96.195952	3.303075	0.262247	38.047400	-321.952600	38.047400	0.687838	1.028840	2.830000	2.056792	0.856778	-31.975609
198.671992	0.045403	0.251487	0.255552	96.184155	3.273271	0.255248	37.358856	-322.641144	37.358856	0.668235	1.015330	2.830000	2.088551	0.864579	-31.394624
201.533769	0.046700	0.254927	0.259169	96.172414	3.244864	0.248418	36.680271	-323.319729	36.680271	0.649246	1.002431	2.830000	2.119635	0.872147	-30.819501
204.436768	0.048033	0.258408	0.262835	96.160732	3.217772	0.241754	36.011442	-323.988558	36.011442	0.630853	0.990105	2.830000	2.150045	0.879490	-30.250247
207.381584	0.049403	0.261932	0.266550	96.149111	3.191920	0.235254	35.352170	-324.647830	35.352170	0.613037	0.978320	2.830000	2.179783	0.886614	-29.686855
210.368818	0.050812	0.265498	0.270316	96.137551	3.167237	0.228915	34.702258	-325.297742	34.702258	0.595781	0.967044	2.830000	2.208853	0.893523	-29.129309
213.399082	0.052260	0.269106	0.274133	96.126053	3.143659	0.222734	34.061510	-325.938490	34.061510	0.579068	0.956249	2.830000	2.237258	0.900225	-28.577582
216.472995	0.053749	0.272757	0.278002	96.114618	3.121126	0.216708	33.429735	-326.570265	33.429735	0.562880	0.945906	2.830000	2.265004	0.906724	-28.031637
219.591187	0.055279	0.276450	0.281923	96.103245	3.099581	0.210833	32.806742	-327.193258	32.806742	0.547202	0.935991	2.830000	2.292095	0.913027	-27.491430
222.754295	0.056852	0.280187	0.285897	96.091935	3.078971	0.205108	32.192345	-327.807655	32.192345	0.532018	0.926481	2.830000	2.318539	0.919138	-26.956910
225.962966	0.058469	0.283967	0.289924	96.080686	3.059249	0.199528	31.586358	-328.413642	31.586358	0.517312	0.917352	2.830000	2.344342	0.925064	-26.428020
229.217857	0.060131	0.287790	0.294005	96.069498	3.040367	0.194091	30.988602	-329.011398	30.988602	0.503069	0.908585	2.830000	2.369510	0.930809	-25.904698
232.519632	0.061839	0.291657	0.298141	96.058369	3.022284	0.188793	30.398896	-329.601104	30.398896	0.489275	0.900159	2.830000	2.394053	0.936378	-25.386875
235.868968	0.063594	0.295568	0.302332	96.047296	3.004960	0.183633	29.817064	-330.182936	29.817064	0.475915	0.892058	2.830000	2.417978	0.941776	-24.874481
239.266550	0.065399	0.299523	0.306579	96.036280	2.988356	0.178606	29.242933	-330.757067	29.242933	0.462975	0.884263	2.830000	2.441293	0.947009	-24.367441
242.713072	0.067253	0.303521	0.310883	96.025316	2.972439	0.173710	28.676332	-331.323668	28.676332	0.450442	0.876759	2.830000	2.464007	0.952080	-23.865675
246.209240	0.069158	0.307564	0.315243	96.014403	2.957174	0.168943	28.117094	-331.882906	28.117094	0.438304	0.869531	2.830000	2.486130	0.956995	-23.369103
249.755769	0.071116	0.311651	0.319662	96.003537	2.942531	0.164300	27.565053	-332.434947	27.565053	0.426546	0.862565	2.830000	2.507670	0.961757	-22.877642
253.353383	0.073128	0.315782	0.324138	95.992715	2.928481	0.159779	27.020047	-332.979953	27.020047	0.415158	0.855846	2.830000	2.528637	0.966371	-22.391206
257.002820	0.075196	0.319957	0.328674	95.981935	2.914997	0.155378	26.481915	-333.518085	26.481915	0.404127	0.849364	2.830000	2.549039	0.970842	-21.909708
260.704825	0.077320	0.324176	0.333269	95.971192	2.902052	0.151093	25.950501	-334.049499	25.950501	0.393442	0.843105	2.830000	2.568888	0.975172	-21.433059
264.460155	0.079502	0.328439	0.337924	95.960483	2.889623	0.146922	25.425650	-334.574350	25.425650	0.383091	0.837058	2.830000	2.588191	0.979367	-20.961170
268.269580	0.081745	0.332746	0.342640	95.949803	2.877686	0.142862	24.907209	-335.092791	24.907209	0.373065	0.831214	2.830000	2.606959	0.983429	-20.493950
272.133877	0.084048	0.337098	0.347418	95.939149	2.866220	0.138910	24.395030	-335.604970	24.395030	0.363351	0.825561	2.830000	2.625202	0.987363	-20.031307
276.053838	0.086415	0.341493	0.352257	95.928515	2.855205	0.135064	23.888965	-336.111035	23.888965	0.353941	0.820091	2.830000	2.642928	0.991172	-19.573151
280.030263	0.088845	0.345932	0.357159	95.917897	2.844622	0.131322	23.388870	-336.611130	23.388870	0.344824	0.814794	2.830000	2.660148	0.994860	-19.119389
284.063968	0.091343	0.350414	0.362124	95.907291	2.834451	0.127679	22.894602	-337.105398	22.894602	0.335991	0.809662	2.830000	2.676870	0.998430	-18.669927
288.155776	0.093907	0.354940	0.367152	95.896691	2.824677	0.124135	22.406023	-337.593977	22.406023	0.327432	0.804687	2.830000	2.693105	1.001884	-18.224674
292.306525	0.096542	0.359508	0.372245	95.886091	2.815283	0.120687	21.922994	-338.077006	21.922994	0.319140	0.799860	2.830000	2.708862	1.005228	-17.783537
296.517063	0.099247	0.364120	0.377403	95.875487	2.806253	0.117332	21.445380	-338.554620	21.445380	0.311105	0.795175	2.830000	2.724149	1.008462	-17.346424
300.788252	0.102025	0.368773	0.382627	95.864873	2.797573	0.114068	20.973048	-339.026952	20.973048	0.303319	0.790625	2.830000	2.738977	1.011591	-16.913241
305.120965	0.104879	0.373469	0.387916	95.854243	2.789229	0.110892	20.505868	-339.494132	20.505868	0.295773	0.786202	2.830000	2.753353	1.014617	-16.483897
309.516090	0.107808	0.378206	0.393272	95.843591	2.781208	0.107803	20.043711	-339.956289	20.043711	0.288461	0.781901	2.830000	2.767287	1.017544	-16.058301
313.974523	0.110817	0.382985	0.398695	95.832911	2.773497	0.104797	19.586450	-340.413550	19.586450	0.281375	0.777715	2.830000	2.780787	1.020372	-15.636361
318.497179	0.113905	0.387803	0.404185	95.822197	2.766086	0.101874	19.133962	-340.866038	19.133962	0.274507	0.773639	2.830000	2.793862	1.023106	-15.217986
323.084981	0.117076	0.392662	0.409744	95.811442	2.758962	0.099031	18.686122	-341.313878	18.686122	0.267851	0.769667	2.830000	2.806520	1.025748	-14.803085
327.738869	0.120331	0.397560	0.415372	95.800639	2.752115	0.096265	18.242810	-341.757190	18.242810	0.261399	0.765794	2.830000	2.818770	1.028300	-14.391570
332.459793	0.123673	0.402497	0.421069	95.789783	2.745536	0.093575	17.803909	-342.196091	17.803909	0.255145	0.762014	2.830000	2.830619	1.030764	-13.983351
337.248720	0.127102	0.407471	0.426835	95.778865	2.739214	0.090958	17.369300	-342.630700	17.369300	0.249083	0.758323	2.830000	2.842075	1.033143	-13.578338
342.106630	0.130623	0.412483	0.432671	95.767880	2.733140	0.088414	16.938869	-343.061131	16.938869	0.243207	0.754716	2.830000	2.853146	1.035439	-13.176445
347.034515	0.134235	0.417531	0.438579	95.756818	2.727306	0.085939	16.512502	-343.487498	16.512502	0.237510	0.751189	2.830000	2.863839	1.037654	-12.777584
352.033384	0.137942	0.422614	0.444557	95.745675	2.721704	0.083533	16.090088	-343.909912	16.090088	0.231987	0.747736	2.830000	2.874163	1.039790	-12.381669
357.104260	0.141746	0.427732	0.450607	95.734440	2.716326	0.081192	15.671516	-344.328484	15.671516	0.226633	0.744355	2.830000	2.884122	1.041848	-11.988613
362.248179	0.145649	0.432882	0.456728	95.723108	2.711165	0.078917	15.256677	-344.743323	15.256677	0.221442	0.741040	2.830000	2.893726	1.043832	-11.598331
367.466194	0.149654	0.438065	0.462922	95.711669	2.706213	0.076704	14.845465	-345.154535	14.845465	0.216408	0.737789	2.830000	2.902980	1.045742	-11.210739
372.759372	0.153761	0.443278	0.469189	95.700117	2.701463	0.074552	14.437774	-345.562226	14.437774	0.211528	0.734597	2.830000	2.911890	1.047580	-10.825753
378.128796	0.157975	0.448521	0.475528	95.688442	2.696911	0.072459	14.033500	-345.966500	14.033500	0.206796	0.731460	2.830000	2.920464	1.049349	-10.443290
383.575563	0.162296	0.453792	0.481941	95.676636	2.692548	0.070424	13.632540	-346.367460	13.632540	0.202207	0.728376	2.830000	2.928708	1.051049	-10.063267
389.100789	0.166728	0.459089	0.488427	95.664691	2.688371	0.068446	13.234793	-346.765207	13.234793	0.197757	0.725340	2.830000	2.936626	1.052682	-9.685604
394.705603	0.171273	0.464412	0.494988	95.652597	2.684372	0.066523	12.840159	-347.159841	12.840159	0.193441	0.722349	2.830000	2.944226	1.054250	-9.310219
400.391152	0.175933	0.469758	0.501622	95.640347	2.680548	0.064652	12.448539	-347.551461	12.448539	0.189256	0.719401	2.830000	2.951512	1.055754	-8.937032
406.158599	0.180710	0.475125	0.508331	95.627930	2.676893	0.062834	12.059835	-347.940165	12.059835	0.185197	0.716492	2.830000	2.958490	1.057196	-8.565964
412.009123	0.185608	0.480512	0.515114	95.615337	2.673402	0.061066	11.673951	-348.326049	11.673951	0.181261	0.713619	2.830000	2.965166	1.058576	-8.196936
417.943921	0.190628	0.485917	0.521972	95.602559	2.670072	0.059347	11.290792	-348.709208	11.290792	0.177443	0.710779	2.830000	2.971543	1.059897	-7.829869
423.964207	0.195772	0.491338	0.528904	95.589586	2.666897	0.057676	10.910263	-349.089737	10.910263	0.173739	0.707969	2.830000	2.977628	1.061158	-7.464688
430.071212	0.201044	0.496772	0.535911	95.576408	2.663874	0.056051	10.532271	-349.467729	10.532271	0.170147	0.705187	2.830000	2.983424	1.062363	-7.101315
436.266186	0.206446	0.502217	0.542993	95.563015	2.660999	0.054472	10.156725	-349.843275	10.156725	0.166663	0.702429	2.830000	2.988936	1.063510	-6.739675
442.550395	0.211980	0.507671	0.550150	95.549396	2.658269	0.052936	9.783533	-350.216467	9.783533	0.163283	0.699693	2.830000	2.994168	1.064603	-6.379692
448.925126	0.217649	0.513131	0.557382	95.535541	2.655679	0.051443	9.412605	-350.587395	9.412605	0.160004	0.696976	2.830000	2.999125	1.065641	-6.021292
455.391681	0.223456	0.518594	0.564688	95.521438	2.653228	0.049992	9.043852	-350.956148	9.043852	0.156823	0.694277	2.830000	3.003810	1.066625	-5.664401
461.951385	0.229402	0.524059	0.572069	95.507077	2.650911	0.048581	8.677184	-351.322816	8.677184	0.153738	0.691591	2.830000	3.008228	1.067558	-5.308946
468.605578	0.235490	0.529520	0.579523	95.492446	2.648726	0.047210	8.312516	-351.687484	8.312516	0.150744	0.688917	2.830000	3.012380	1.068438	-4.954854
475.355621	0.241723	0.534977	0.587052	95.477534	2.646671	0.045876	7.949759	-352.050241	7.949759	0.147840	0.686253	2.830000	3.016272	1.069268	-4.602055
482.202895	0.248103	0.540425	0.594655	95.462328	2.644742	0.044580	7.588829	-352.411171	7.588829	0.145023	0.683595	2.830000	3.019906	1.070048	-4.250476
489.148802	0.254632	0.545861	0.602330	95.446816	2.642938	0.043320	7.229639	-352.770361	7.229639	0.142289	0.680942	2.830000	3.023285	1.070778	-3.900047
496.194760	0.261314	0.551281	0.610079	95.430986	2.641255	0.042096	6.872105	-353.127895	6.872105	0.139637	0.678292	2.830000	3.026412	1.071460	-3.550699
503.342213	0.268149	0.556682	0.617899	95.414826	2.639693	0.040905	6.516143	-353.483857	6.516143	0.137063	0.675641	2.830000	3.029290	1.072095	-3.202362
510.592621	0.275142	0.562061	0.625792	95.398321	2.638248	0.039748	6.161671	-353.838329	6.161671	0.134566	0.672988	2.830000	3.031921	1.072682	-2.854968
517.947468	0.282293	0.567412	0.633755	95.381458	2.636920	0.038623	5.808604	-354.191396	5.808604	0.132144	0.670330	2.830000	3.034308	1.073222	-2.508449
525.408258	0.289606	0.572732	0.641789	95.364225	2.635706	0.037529	5.456862	-354.543138	5.456862	0.129793	0.667666	2.830000	3.036452	1.073716	-2.162737
532.976517	0.297082	0.578016	0.649892	95.346606	2.634605	0.036466	5.106363	-354.893637	5.106363	0.127512	0.664993	2.830000	3.038357	1.074165	-1.817766
540.653794	0.304723	0.583260	0.658064	95.328587	2.633615	0.035433	4.757026	-355.242974	4.757026	0.125298	0.662308	2.830000	3.040023	1.074569	-1.473469
548.441658	0.312532	0.588459	0.666304	95.310153	2.632736	0.034429	4.408770	-355.591230	4.408770	0.123150	0.659611	2.830000	3.041453	1.074928	-1.129782
556.341702	0.320510	0.593609	0.674610	95.291289	2.631965	0.033452	4.061516	-355.938484	4.061516	0.121066	0.656897	2.830000	3.042649	1.075242	-0.786639
564.355543	0.328660	0.598703	0.682981	95.271980	2.631302	0.032503	3.715183	-356.284817	3.715183	0.119043	0.654167	2.830000	3.043611	1.075513	-0.443976
572.484820	0.336983	0.603738	0.691417	95.252209	2.630746	0.031581	3.369693	-356.630307	3.369693	0.117080	0.651417	2.830000	3.044341	1.075741	-0.101729
580.731195	0.345481	0.608707	0.699915	95.231961	2.630295	0.030684	3.024968	-356.975032	3.024968	0.115175	0.648645	2.830000	3.044840	1.075925	0.240164
589.096355	0.354154	0.613605	0.708474	95.211218	2.629950	0.029813	2.680928	-357.319072	2.680928	0.113326	0.645849	2.830000	3.045110	1.076066	0.581767
597.582011	0.363006	0.618425	0.717094	95.189963	2.629709	0.028966	2.337496	-357.662504	2.337496	0.111532	0.643028	2.830000	3.045150	1.076165	0.923141
606.189899	0.372037	0.623163	0.725771	95.168178	2.629572	0.028143	1.994595	-358.005405	1.994595	0.109791	0.640179	2.830000	3.044963	1.076221	1.264347
614.921780	0.381248	0.627811	0.734504	95.145846	2.629538	0.027342	1.652146	-358.347854	1.652146	0.108101	0.637299	2.830000	3.044548	1.076235	1.605447
623.779440	0.390640	0.632364	0.743292	95.122947	2.629608	0.026564	1.310074	-358.689926	1.310074	0.106460	0.634388	2.830000	3.043906	1.076206	1.946499
632.764690	0.400214	0.636814	0.752132	95.099462	2.629780	0.025808	0.968301	-359.031699	0.968301	0.104869	0.631443	2.830000	3.043037	1.076136	2.287564
641.879368	0.409970	0.641154	0.761022	95.075372	2.630054	0.025073	0.626751	-359.373249	0.626751	0.103323	0.628462	2.830000	3.041942	1.076024	2.628701
651.125339	0.419910	0.645378	0.769959	95.050657	2.630431	0.024359	0.285348	-359.714652	0.285348	0.101824	0.625443	2.830000	3.040621	1.075869	2.969968
660.504493	0.430032	0.649478	0.778942	95.025295	2.630910	0.023665	-0.055984	-360.055984	-0.055984	0.100368	0.622383	2.830000	3.039073	1.075674	3.311422
670.018750	0.440338	0.653448	0.787967	94.999266	2.631491	0.022990	-0.397320	-360.397320	-0.397320	0.098955	0.619282	2.830000	3.037299	1.075436	3.653121
679.670056	0.450827	0.657278	0.797031	94.972547	2.632175	0.022334	-0.738737	-360.738737	-0.738737	0.097584	0.616137	2.830000	3.035299	1.075156	3.995121
689.460384	0.461497	0.660961	0.806132	94.945116	2.632963	0.021697	-1.080309	-361.080309	-1.080309	0.096252	0.612945	2.830000	3.033071	1.074835	4.337478
699.391737	0.472350	0.664490	0.815267	94.916951	2.633853	0.021077	-1.422112	-361.422112	-1.422112	0.094960	0.609706	2.830000	3.030615	1.074472	4.680246
709.466146	0.483382	0.667855	0.824432	94.888026	2.634847	0.020475	-1.764219	-361.764219	-1.764219	0.093705	0.606417	2.830000	3.027932	1.074066	5.023480
719.685673	0.494594	0.671049	0.833624	94.858319	2.635945	0.019889	-2.106706	-362.106706	-2.106706	0.092487	0.603075	2.830000	3.025019	1.073619	5.367235
730.052407	0.505982	0.674063	0.842840	94.827803	2.637149	0.019320	-2.449648	-362.449648	-2.449648	0.091305	0.599680	2.830000	3.021878	1.073129	5.711563
740.568469	0.517546	0.676887	0.852074	94.796454	2.638457	0.018767	-2.793118	-362.793118	-2.793118	0.090156	0.596229	2.830000	3.018505	1.072596	6.056516
751.236010	0.529282	0.679514	0.861324	94.764244	2.639872	0.018230	-3.137191	-363.137191	-3.137191	0.089042	0.592721	2.830000	3.014901	1.072022	6.402147
762.057212	0.541187	0.681933	0.870584	94.731146	2.641395	0.017707	-3.481940	-363.481940	-3.481940	0.087959	0.589152	2.830000	3.011065	1.071404	6.748507
773.034288	0.553259	0.684136	0.879851	94.697133	2.643025	0.017199	-3.827439	-363.827439	-3.827439	0.086908	0.585523	2.830000	3.006994	1.070743	7.095644
784.169484	0.565494	0.686113	0.889120	94.662175	2.644765	0.016706	-4.173761	-364.173761	-4.173761	0.085887	0.581829	2.830000	3.002689	1.070038	7.443610
795.465078	0.577887	0.687855	0.898386	94.626244	2.646615	0.016226	-4.520981	-364.520981	-4.520981	0.084895	0.578071	2.830000	2.998148	1.069290	7.792453
806.923378	0.590433	0.689352	0.907644	94.589309	2.648577	0.015760	-4.869170	-364.869170	-4.869170	0.083932	0.574245	2.830000	2.993368	1.068498	8.142221
818.546731	0.603129	0.690594	0.916888	94.551339	2.650652	0.015307	-5.218403	-365.218403	-5.218403	0.082996	0.570350	2.830000	2.988350	1.067662	8.492960
830.337512	0.615967	0.691571	0.926114	94.512301	2.652841	0.014866	-5.568750	-365.568750	-5.568750	0.082087	0.566385	2.830000	2.983090	1.066781	8.844718
842.298134	0.628942	0.692274	0.935314	94.472163	2.655146	0.014438	-5.920285	-365.920285	-5.920285	0.081203	0.562347	2.830000	2.977588	1.065855	9.197540
854.431043	0.642048	0.692693	0.944483	94.430892	2.657568	0.014022	-6.273079	-366.273079	-6.273079	0.080345	0.558235	2.830000	2.971842	1.064883	9.551471
866.738721	0.655276	0.692817	0.953616	94.388452	2.660110	0.013617	-6.627205	-366.627205	-6.627205	0.079510	0.554047	2.830000	2.965850	1.063866	9.906553
879.223685	0.668619	0.692638	0.962704	94.344807	2.662772	0.013224	-6.982733	-366.982733	-6.982733	0.078699	0.549781	2.830000	2.959610	1.062802	10.262830
891.888489	0.682068	0.692144	0.971741	94.299922	2.665556	0.012842	-7.339734	-367.339734	-7.339734	0.077910	0.545436	2.830000	2.953120	1.061692	10.620344
904.735724	0.695615	0.691327	0.980721	94.253759	2.668465	0.012470	-7.698279	-367.698279	-7.698279	0.077142	0.541011	2.830000	2.946379	1.060535	10.979136
917.768017	0.709249	0.690177	0.989636	94.206278	2.671501	0.012109	-8.058438	-368.058438	-8.058438	0.076396	0.536503	2.830000	2.939384	1.059329	11.339245
930.988035	0.722960	0.688684	0.998477	94.157441	2.674666	0.011759	-8.420280	-368.420280	-8.420280	0.075669	0.531912	2.830000	2.932134	1.058076	11.700711
944.398480	0.736737	0.686839	1.007238	94.107207	2.677961	0.011417	-8.783874	-368.783874	-8.783874	0.074962	0.527235	2.830000	2.924626	1.056774	12.063571
958.002097	0.750567	0.684632	1.015910	94.055534	2.681389	0.011086	-9.149289	-369.149289	-9.149289	0.074274	0.522473	2.830000	2.916859	1.055423	12.427862
971.801667	0.764439	0.682056	1.024484	94.002380	2.684953	0.010764	-9.516592	-369.516592	-9.516592	0.073603	0.517623	2.830000	2.908830	1.054022	12.793619
985.800014	0.778339	0.679102	1.032952	93.947700	2.688655	0.010450	-9.885850	-369.885850	-9.885850	0.072950	0.512684	2.830000	2.900537	1.052571	13.160876
1000.000000	0.792252	0.675760	1.041305	93.891450	2.692497	0.010146	-10.257130	-370.257130	-10.257130	0.072313	0.507655	2.830000	2.891979	1.051069	13.529668
1014.404530	0.806165	0.672025	1.049533	93.833583	2.696482	0.009850	-10.630495	-370.630495	-10.630495	0.071691	0.502536	2.830000	2.883153	1.049515	13.900026
1029.016551	0.820061	0.667888	1.057626	93.774053	2.700614	0.009562	-11.006011	-371.006011	-11.006011	0.071085	0.497326	2.830000	2.874057	1.047910	14.271980
1043.839051	0.833924	0.663342	1.065576	93.712811	2.704894	0.009283	-11.383741	-371.383741	-11.383741	0.070494	0.492023	2.830000	2.864689	1.046252	14.645560
1058.875063	0.847737	0.658382	1.073370	93.649808	2.709325	0.009011	-11.763746	-371.763746	-11.763746	0.069916	0.486628	2.830000	2.855047	1.044540	15.020794
1074.127661	0.861481	0.653002	1.081000	93.584994	2.713912	0.008747	-12.146088	-372.146088	-12.146088	0.069351	0.481139	2.830000	2.845129	1.042775	15.397709
1089.599965	0.875140	0.647197	1.088455	93.518316	2.718656	0.008490	-12.530826	-372.530826	-12.530826	0.068798	0.475557	2.830000	2.834933	1.040955	15.776330
1105.295141	0.888692	0.640963	1.095722	93.449723	2.723562	0.008240	-12.918018	-372.918018	-12.918018	0.068258	0.469880	2.830000	2.824457	1.039081	16.156680
1121.216399	0.902118	0.634296	1.102792	93.379160	2.728631	0.007998	-13.307720	-373.307720	-13.307720	0.067728	0.464111	2.830000	2.813700	1.037150	16.538782
1137.366994	0.915398	0.627196	1.109652	93.306572	2.733869	0.007762	-13.699987	-373.699987	-13.699987	0.067209	0.458247	2.830000	2.802659	1.035163	16.922657
1153.750232	0.928509	0.619659	1.116291	93.231904	2.739278	0.007533	-14.094873	-374.094873	-14.094873	0.066700	0.452291	2.830000	2.791333	1.033119	17.308323
1170.369462	0.941429	0.611686	1.122697	93.155099	2.744862	0.007310	-14.492428	-374.492428	-14.492428	0.066200	0.446242	2.830000	2.779720	1.031017	17.695798
1187.228084	0.954136	0.603277	1.128858	93.076099	2.750625	0.007093	-14.892702	-374.892702	-14.892702	0.065708	0.440101	2.830000	2.767819	1.028857	18.085098
1204.329547	0.966607	0.594436	1.134761	92.994845	2.756570	0.006883	-15.295741	-375.295741	-15.295741	0.065225	0.433869	2.830000	2.755628	1.026638	18.476237
1221.677349	0.978817	0.585164	1.140394	92.911277	2.762702	0.006678	-15.701591	-375.701591	-15.701591	0.064749	0.427547	2.830000	2.743146	1.024359	18.869226
1239.275037	0.990742	0.575467	1.145745	92.825336	2.769025	0.006479	-16.110293	-376.110293	-16.110293	0.064280	0.421137	2.830000	2.730371	1.022021	19.264077
1257.126212	1.002357	0.565351	1.150800	92.736960	2.775542	0.006286	-16.521888	-376.521888	-16.521888	0.063817	0.414640	2.830000	2.717303	1.019621	19.660798
1275.234525	1.013638	0.554823	1.155548	92.646087	2.782258	0.006098	-16.936413	-376.936413	-16.936413	0.063360	0.408059	2.830000	2.703941	1.017159	20.059395
1293.603680	1.024558	0.543893	1.159974	92.552656	2.789178	0.005915	-17.353902	-377.353902	-17.353902	0.062907	0.401395	2.830000	2.690283	1.014636	20.459873
1312.237433	1.035093	0.532572	1.164067	92.456603	2.796305	0.005737	-17.774387	-377.774387	-17.774387	0.062460	0.394651	2.830000	2.676329	1.012050	20.862235
1331.139597	1.045217	0.520872	1.167813	92.357866	2.803645	0.005565	-18.197898	-378.197898	-18.197898	0.062016	0.387830	2.830000	2.662078	1.009400	21.266480
1350.314038	1.054905	0.508807	1.171200	92.256383	2.811202	0.005397	-18.624461	-378.624461	-18.624461	0.061576	0.380935	2.830000	2.647531	1.006687	21.672608
1369.764677	1.064130	0.496395	1.174215	92.152091	2.818981	0.005234	-19.054098	-379.054098	-19.054098	0.061140	0.373969	2.830000	2.632687	1.003909	22.080616
1389.495494	1.072869	0.483653	1.176846	92.044927	2.826987	0.005075	-19.486831	-379.486831	-19.486831	0.060705	0.366936	2.830000	2.617546	1.001066	22.490496
1409.510524	1.081095	0.470601	1.179081	91.934829	2.835224	0.004921	-19.922678	-379.922678	-19.922678	0.060274	0.359840	2.830000	2.602108	0.998157	22.902241
1429.813862	1.088787	0.457262	1.180909	91.821738	2.843699	0.004771	-20.361653	-380.361653	-20.361653	0.059844	0.352686	2.830000	2.586374	0.995183	23.315840
1450.409659	1.095919	0.443661	1.182317	91.705593	2.852415	0.004626	-20.803771	-380.803771	-20.803771	0.059415	0.345478	2.830000	2.570345	0.992142	23.731281
1471.302129	1.102470	0.429822	1.183295	91.586336	2.861379	0.004484	-21.249042	-381.249042	-21.249042	0.058989	0.338222	2.830000	2.554021	0.989033	24.148549
1492.495545	1.108418	0.415776	1.183833	91.463910	2.870597	0.004346	-21.697476	-381.697476	-21.697476	0.058563	0.330922	2.830000	2.537404	0.985858	24.567627
1513.994242	1.113743	0.401552	1.183920	91.338261	2.880072	0.004213	-22.149082	-382.149082	-22.149082	0.058139	0.323585	2.830000	2.520495	0.982614	24.988493
1535.802619	1.118427	0.387184	1.183550	91.209336	2.889812	0.004083	-22.603868	-382.603868	-22.603868	0.057716	0.316217	2.830000	2.503296	0.979302	25.411128
1557.925134	1.122452	0.372705	1.182712	91.077087	2.899822	0.003956	-23.061847	-383.061847	-23.061847	0.057295	0.308824	2.830000	2.485808	0.975922	25.835505
1580.366314	1.125804	0.358154	1.181401	90.941465	2.910107	0.003834	-23.523028	-383.523028	-23.523028	0.056876	0.301413	2.830000	2.468035	0.972473	26.261597
1603.130749	1.128469	0.343567	1.179611	90.802429	2.920675	0.003714	-23.987429	-383.987429	-23.987429	0.056460	0.293991	2.830000	2.449978	0.968954	26.689376
1626.223094	1.130438	0.328987	1.177337	90.659937	2.931530	0.003598	-24.455070	-384.455070	-24.455070	0.056047	0.286566	2.830000	2.431641	0.965366	27.118808
1649.648074	1.131701	0.314455	1.174576	90.513953	2.942679	0.003486	-24.925981	-384.925981	-24.925981	0.055638	0.279145	2.830000	2.413026	0.961709	27.549860
1673.410480	1.132253	0.300015	1.171326	90.364443	2.954128	0.003376	-25.400201	-385.400201	-25.400201	0.055235	0.271737	2.830000	2.394137	0.957981	27.982495
1697.515172	1.132092	0.285714	1.167589	90.211374	2.965884	0.003270	-25.877780	-385.877780	-25.877780	0.054838	0.264350	2.830000	2.374978	0.954184	28.416672
1721.967081	1.131218	0.271596	1.163365	90.054716	2.977953	0.003166	-26.358781	-386.358781	-26.358781	0.054449	0.256993	2.830000	2.355552	0.950317	28.852350
1746.771208	1.129636	0.257711	1.158660	89.894435	2.990342	0.003066	-26.843281	-386.843281	-26.843281	0.054070	0.249674	2.830000	2.335865	0.946380	29.289484
1771.932627	1.127354	0.244107	1.153480	89.730495	3.003057	0.002968	-27.331370	-387.331370	-27.331370	0.053701	0.242402	2.830000	2.315921	0.942373	29.728027
1797.456484	1.124383	0.230834	1.147833	89.562849	3.016105	0.002873	-27.823139	-387.823139	-27.823139	0.053341	0.235187	2.830000	2.295724	0.938296	30.167931
1823.348001	1.120739	0.217940	1.141733	89.391436	3.029492	0.002781	-28.318672	-388.318672	-28.318672	0.052988	0.228038	2.830000	2.275281	0.934150	30.609144
1849.612473	1.116441	0.205476	1.135192	89.216175	3.043227	0.002692	-28.818018	-388.818018	-28.818018	0.052636	0.220964	2.830000	2.254597	0.929934	31.051611
1876.255272	1.111515	0.193491	1.128231	89.036954	3.057314	0.002605	-29.321142	-389.321142	-29.321142	0.052274	0.213976	2.830000	2.233678	0.925649	31.495276
1903.281848	1.105988	0.182032	1.120868	88.853632	3.071763	0.002520	-29.827870	-389.827870	-29.827870	0.051883	0.207081	2.830000	2.212530	0.921295	31.940081
1930.697729	1.099895	0.171149	1.113131	88.666037	3.086580	0.002438	-30.337788	-390.337788	-30.337788	0.051436	0.200290	2.830000	2.191160	0.916873	32.385966
1958.508523	1.093272	0.160885	1.105046	88.473986	3.101771	0.002359	-30.850148	-390.850148	-30.850148	0.050897	0.193612	2.830000	2.169575	0.912382	32.832869
1986.719919	1.086162	0.151285	1.096647	88.277322	3.117345	0.002282	-31.363783	-391.363783	-31.363783	0.050227	0.187055	2.830000	2.147782	0.907824	33.280723
2015.337686	1.078612	0.142390	1.087970	88.075979	3.133308	0.002206	-31.877080	-391.877080	-31.877080	0.049392	0.180629	2.830000	2.125789	0.903199	33.729464
2044.367679	1.070674	0.134237	1.079056	87.870057	3.149669	0.002134	-32.388107	-392.388107	-32.388107	0.048379	0.174342	2.830000	2.103603	0.898507	34.179023
2073.815835	1.062404	0.126862	1.069952	87.659900	3.166434	0.002063	-32.894891	-392.894891	-32.894891	0.047210	0.168203	2.830000	2.081233	0.893750	34.629330
2103.688178	1.053862	0.120294	1.060705	87.446111	3.183611	0.001994	-33.395828	-393.395828	-33.395828	0.045946	0.162218	2.830000	2.058688	0.888928	35.080314
2133.990819	1.045112	0.114559	1.051372	87.229497	3.201208	0.001928	-33.890054	-393.890054	-33.890054	0.044672	0.156397	2.830000	2.035975	0.884041	35.531902
2164.729954	1.036223	0.109677	1.042011	87.010956	3.219231	0.001863	-34.377623	-394.377623	-34.377623	0.043468	0.150745	2.830000	2.013104	0.879092	35.984020
2195.911873	1.027265	0.105662	1.032685	86.791335	3.237690	0.001801	-34.859384	-394.859384	-34.859384	0.042392	0.145269	2.830000	1.990084	0.874080	36.436593
2227.542952	1.018312	0.102524	1.023460	86.571338	3.256592	0.001740	-35.336660	-395.336660	-35.336660	0.041462	0.139974	2.830000	1.966925	0.869007	36.889543
2259.629662	1.009441	0.100264	1.014409	86.351491	3.275944	0.001681	-35.810872	-395.810872	-35.810872	0.040667	0.134866	2.830000	1.943635	0.863873	37.342794
2292.178566	1.000730	0.098875	1.005603	86.132170	3.295755	0.001624	-36.283258	-396.283258	-36.283258	0.039978	0.129950	2.830000	1.920225	0.858680	37.796268
2325.196322	0.992258	0.098345	0.997120	85.913653	3.316032	0.001568	-36.754733	-396.754733	-36.754733	0.039363	0.125227	2.830000	1.896705	0.853430	38.249884
2358.689683	0.984104	0.098652	0.989036	85.696168	3.336784	0.001515	-37.225875	-397.225875	-37.225875	0.038792	0.120702	2.830000	1.873084	0.848122	38.703565
2392.665500	0.976346	0.099766	0.981430	85.479934	3.358017	0.001463	-37.696972	-397.696972	-37.696972	0.038243	0.116374	2.830000	1.849374	0.842759	39.157229
2427.130723	0.969063	0.101650	0.974380	85.265180	3.379741	0.001412	-38.168093	-398.168093	-38.168093	0.037700	0.112246	2.830000	1.825584	0.837342	39.610797
2462.092401	0.962329	0.104257	0.967960	85.052154	3.401964	0.001363	-38.639165	-398.639165	-38.639165	0.037156	0.108317	2.830000	1.801725	0.831872	40.064189
2497.557686	0.956215	0.107530	0.962242	84.841120	3.424693	0.001316	-39.110029	-399.110029	-39.110029	0.036604	0.104584	2.830000	1.777807	0.826351	40.517323
2533.533832	0.950787	0.111407	0.957292	84.632351	3.447938	0.001270	-39.580480	-399.580480	-39.580480	0.036044	0.101047	2.830000	1.753841	0.820780	40.970121
2570.028197	0.946108	0.115814	0.953170	84.426116	3.471705	0.001226	-40.050298	-400.050298	-40.050298	0.035476	0.097702	2.830000	1.729837	0.815161	41.422502
2607.048246	0.942231	0.120671	0.949927	84.222672	3.496004	0.001183	-40.519264	-400.519264	-40.519264	0.034901	0.094543	2.830000	1.705807	0.809496	41.874386
2644.601552	0.939203	0.125892	0.947603	84.022249	3.520844	0.001141	-40.987174	-400.987174	-40.987174	0.034321	0.091568	2.830000	1.681760	0.803785	42.325695
2682.695795	0.937061	0.131380	0.946226	83.825041	3.546232	0.001101	-41.453843	-401.453843	-41.453843	0.033738	0.088768	2.830000	1.657708	0.798030	42.776349
2721.338768	0.935832	0.137037	0.945812	83.631193	3.572176	0.001062	-41.919109	-401.919109	-41.919109	0.033153	0.086137	2.830000	1.633660	0.792234	43.226272
2760.538375	0.935532	0.142757	0.946362	83.440795	3.598687	0.001024	-42.382835	-402.382835	-42.382835	0.032570	0.083667	2.830000	1.609628	0.786398	43.675385
2800.302634	0.936166	0.148431	0.947860	83.253873	3.625772	0.000988	-42.844907	-402.844907	-42.844907	0.031989	0.081350	2.830000	1.585622	0.780523	44.123613
2840.639679	0.937724	0.153950	0.950277	83.070385	3.653441	0.000953	-43.305236	-403.305236	-43.305236	0.031413	0.079176	2.830000	1.561652	0.774612	44.570879
2881.557759	0.940183	0.159201	0.953566	82.890214	3.681702	0.000919	-43.763756	-403.763756	-43.763756	0.030844	0.077134	2.830000	1.537728	0.768666	45.017111
2923.065245	0.943508	0.164074	0.957668	82.713170	3.710564	0.000886	-44.220420	-404.220420	-44.220420	0.030281	0.075215	2.830000	1.513861	0.762687	45.462233
2965.170628	0.947647	0.168462	0.962504	82.538989	3.740036	0.000854	-44.675202	-404.675202	-44.675202	0.029727	0.073408	2.830000	1.490059	0.756677	45.906173
3007.882518	0.952535	0.172263	0.967986	82.367337	3.770128	0.000823	-45.128094	-405.128094	-45.128094	0.029183	0.071701	2.830000	1.466334	0.750638	46.348860
3051.209653	0.958093	0.175381	0.974013	82.197811	3.800849	0.000794	-45.579103	-405.579103	-45.579103	0.028650	0.070082	2.830000	1.442695	0.744570	46.790224
3095.160895	0.964228	0.177729	0.980471	82.029950	3.832209	0.000765	-46.028250	-406.028250	-46.028250	0.028127	0.068541	2.830000	1.419150	0.738478	47.230195
3139.745234	0.970835	0.179233	0.987241	81.863241	3.864216	0.000737	-46.475566	-406.475566	-46.475566	0.027615	0.067066	2.830000	1.395710	0.732361	47.668706
3184.971790	0.977795	0.179830	0.994194	81.697128	3.896880	0.000710	-46.921091	-406.921091	-46.921091	0.027115	0.065645	2.830000	1.372383	0.726222	48.105688
3230.849813	0.984983	0.179473	1.001200	81.531022	3.930212	0.000684	-47.364872	-407.364872	-47.364872	0.026627	0.064268	2.830000	1.349178	0.720063	48.541077
3277.388687	0.992262	0.178134	1.008125	81.364310	3.964222	0.000659	-47.806956	-407.806956	-47.806956	0.026150	0.062924	2.830000	1.326103	0.713885	48.974807
3324.597932	0.999491	0.175801	1.014834	81.196373	3.998919	0.000635	-48.247393	-408.247393	-48.247393	0.025683	0.061604	2.830000	1.303168	0.707691	49.406814
3372.487204	1.006527	0.172483	1.021198	81.026590	4.034313	0.000612	-48.686225	-408.686225	-48.686225	0.025228	0.060299	2.830000	1.280379	0.701482	49.837036
3421.066299	1.013223	0.168210	1.027091	80.854352	4.070415	0.000590	-49.123492	-409.123492	-49.123492	0.024781	0.059000	2.830000	1.257746	0.695261	50.265410
3470.345152	1.019439	0.163036	1.032394	80.679078	4.107236	0.000568	-49.559220	-409.559220	-49.559220	0.024344	0.057701	2.830000	1.235274	0.689028	50.691877
3520.333844	1.025039	0.157034	1.036998	80.500219	4.144786	0.000547	-49.993421	-409.993421	-49.993421	0.023914	0.056396	2.830000	1.212973	0.682786	51.116376
3571.042600	1.029897	0.150298	1.040806	80.317277	4.183075	0.000527	-50.426091	-410.426091	-50.426091	0.023491	0.055080	2.830000	1.190848	0.676536	51.538848
3622.481792	1.033900	0.142946	1.043735	80.129810	4.222116	0.000507	-50.857206	-410.857206	-50.857206	0.023073	0.053750	2.830000	1.168907	0.670280	51.959236
3674.661941	1.036953	0.135111	1.045718	79.937446	4.261918	0.000488	-51.286714	-411.286714	-51.286714	0.022658	0.052404	2.830000	1.147156	0.664020	52.377483
3727.593720	1.038981	0.126946	1.046708	79.739898	4.302492	0.000470	-51.714542	-411.714542	-51.714542	0.022246	0.051040	2.830000	1.125602	0.657758	52.793532
3781.287957	1.039934	0.118614	1.046677	79.536967	4.343851	0.000453	-52.140586	-412.140586	-52.140586	0.021836	0.049661	2.830000	1.104250	0.651496	53.207329
3835.755635	1.039786	0.110290	1.045619	79.328560	4.386006	0.000436	-52.564714	-412.564714	-52.564714	0.021425	0.048267	2.830000	1.083107	0.645234	53.618820
3891.007893	1.038542	0.102155	1.043554	79.114698	4.428967	0.000419	-52.986771	-412.986771	-52.986771	0.021013	0.046863	2.830000	1.062178	0.638975	54.027951
3947.056035	1.036236	0.094389	1.040526	78.895526	4.472747	0.000404	-53.406576	-413.406576	-53.406576	0.020599	0.045452	2.830000	1.041468	0.632721	54.434671
4003.911523	1.032934	0.087169	1.036605	78.671321	4.517358	0.000388	-53.823937	-413.823937	-53.823937	0.020183	0.044040	2.830000	1.020982	0.626472	54.838929
4061.585988	1.028733	0.080661	1.031890	78.442498	4.562811	0.000374	-54.238659	-414.238659	-54.238659	0.019766	0.042633	2.830000	1.000725	0.620232	55.240675
4120.091227	1.023760	0.075016	1.026505	78.209611	4.609118	0.000360	-54.650563	-414.650563	-54.650563	0.019349	0.041238	2.830000	0.980701	0.614000	55.639861
4179.439206	1.018171	0.070363	1.020599	77.973347	4.656291	0.000346	-55.059498	-415.059498	-55.059498	0.018933	0.039862	2.830000	0.960914	0.607780	56.036440
4239.642065	1.012143	0.066803	1.014345	77.734512	4.704343	0.000333	-55.465366	-415.465366	-55.465366	0.018522	0.038514	2.830000	0.941369	0.601572	56.430366
4300.712118	1.005877	0.064405	1.007936	77.494008	4.753286	0.000320	-55.868123	-415.868123	-55.868123	0.018119	0.037199	2.830000	0.922068	0.595378	56.821596
4362.661857	0.999583	0.063202	1.001579	77.252800	4.803131	0.000308	-56.267785	-416.267785	-56.267785	0.017725	0.035926	2.830000	0.903016	0.589199	57.210087
4425.503952	0.993483	0.063188	0.995491	77.011882	4.853892	0.000296	-56.664410	-416.664410	-56.664410	0.017341	0.034700	2.830000	0.884214	0.583037	57.595798
4489.251258	0.987796	0.064311	0.989888	76.772233	4.905580	0.000285	-57.058067	-417.058067	-57.058067	0.016968	0.033529	2.830000	0.865666	0.576894	57.978692
4553.916814	0.982733	0.066479	0.984979	76.534779	4.958209	0.000274	-57.448806	-417.448806	-57.448806	0.016603	0.032415	2.830000	0.847375	0.570771	58.358732
4619.513847	0.978485	0.069559	0.980955	76.300360	5.011791	0.000263	-57.836634	-417.836634	-57.836634	0.016244	0.031363	2.830000	0.829342	0.564668	58.735882
4686.055775	0.975221	0.073377	0.977977	76.069697	5.066339	0.000253	-58.221502	-418.221502	-58.221502	0.015889	0.030375	2.830000	0.811570	0.558589	59.110111
4753.556208	0.973071	0.077725	0.976170	75.843357	5.121866	0.000243	-58.603316	-418.603316	-58.603316	0.015537	0.029451	2.830000	0.794059	0.552533	59.481389
4822.028953	0.972124	0.082370	0.975608	75.621722	5.178384	0.000234	-58.981955	-418.981955	-58.981955	0.015186	0.028590	2.830000	0.776812	0.546503	59.849688
4891.488015	0.972422	0.087057	0.976311	75.404961	5.235908	0.000225	-59.357297	-419.357297	-59.357297	0.014837	0.027790	2.830000	0.759830	0.540498	60.214981
4961.947603	0.973949	0.091525	0.978240	75.193001	5.294450	0.000216	-59.729244	-419.729244	-59.729244	0.014492	0.027047	2.830000	0.743112	0.534522	60.577247
5033.422128	0.976637	0.095515	0.981297	74.985520	5.354023	0.000207	-60.097737	-420.097737	-60.097737	0.014152	0.026355	2.830000	0.726661	0.528574	60.936462
5105.926210	0.980360	0.098784	0.985324	74.781940	5.414642	0.000199	-60.462764	-420.462764	-60.462764	0.013820	0.025708	2.830000	0.710475	0.522657	61.292609
5179.474679	0.984937	0.101118	0.990114	74.581452	5.476321	0.000191	-60.824365	-420.824365	-60.824365	0.013496	0.025099	2.830000	0.694556	0.516770	61.645670
5254.082580	0.990143	0.102343	0.995418	74.383042	5.539073	0.000184	-61.182627	-421.182627	-61.182627	0.013183	0.024521	2.830000	0.678902	0.510916	61.995630
5329.765172	0.995711	0.102339	1.000956	74.185544	5.602912	0.000177	-61.537676	-421.537676	-61.537676	0.012882	0.023964	2.830000	0.663515	0.505094	62.342476
5406.537936	1.001349	0.101044	1.006434	73.987690	5.667854	0.000170	-61.889668	-421.889668	-61.889668	0.012592	0.023421	2.830000	0.648392	0.499307	62.686197
5484.416576	1.006753	0.098471	1.011557	73.788185	5.733912	0.000163	-62.238777	-422.238777	-62.238777	0.012314	0.022885	2.830000	0.633534	0.493555	63.026781
5563.417021	1.011622	0.094699	1.016044	73.585767	5.801103	0.000157	-62.585181	-422.585181	-62.585181	0.012048	0.022349	2.830000	0.618939	0.487838	63.364221
5643.555431	1.015678	0.089883	1.019647	73.379279	5.869440	0.000150	-62.929049	-422.929049	-62.929049	0.011793	0.021809	2.830000	0.604606	0.482158	63.698510
5724.848197	1.018682	0.084244	1.022159	73.167735	5.938940	0.000145	-63.270526	-423.270526	-63.270526	0.011546	0.021259	2.830000	0.590534	0.476516	64.029640
5807.311946	1.020453	0.078059	1.023434	72.950381	6.009618	0.000139	-63.609722	-423.609722	-63.609722	0.011307	0.020699	2.830000	0.576721	0.470912	64.357607
5890.963548	1.020881	0.071650	1.023392	72.726746	6.081490	0.000133	-63.946695	-423.946695	-63.946695	0.011074	0.020126	2.830000	0.563166	0.465347	64.682407
5975.820111	1.019938	0.065361	1.022030	72.496686	6.154572	0.000128	-64.281445	-424.281445	-64.281445	0.010843	0.019543	2.830000	0.549867	0.459821	65.004035
6061.898993	1.017689	0.059542	1.019429	72.260416	6.228880	0.000123	-64.613907	-424.613907	-64.613907	0.010614	0.018953	2.830000	0.536822	0.454335	65.322491
6149.217802	1.014286	0.054519	1.015750	72.018521	6.304432	0.000118	-64.943951	-424.943951	-64.943951	0.010385	0.018358	2.830000	0.524029	0.448891	65.637771
6237.794396	1.009968	0.050574	1.011234	71.771950	6.381243	0.000113	-65.271394	-425.271394	-65.271394	0.010153	0.017766	2.830000	0.511485	0.443487	65.949875
6327.646895	1.005048	0.047923	1.006189	71.521985	6.459331	0.000109	-65.596009	-425.596009	-65.596009	0.009918	0.017182	2.830000	0.499190	0.438126	66.258803
6418.793677	0.999889	0.046688	1.000978	71.270169	6.538713	0.000104	-65.917552	-425.917552	-65.917552	0.009681	0.016612	2.830000	0.487139	0.432807	66.564557
6511.253386	0.994886	0.046892	0.995991	71.018218	6.619405	0.000100	-66.235783	-426.235783	-66.235783	0.009441	0.016063	2.830000	0.475332	0.427531	66.867139
6605.044933	0.990432	0.048444	0.991616	70.767889	6.701427	0.000096	-66.550489	-426.550489	-66.550489	0.009201	0.015540	2.830000	0.463764	0.422298	67.166552
6700.187504	0.986887	0.051145	0.988211	70.520831	6.784794	0.000092	-66.861506	-426.861506	-66.861506	0.008961	0.015048	2.830000	0.452435	0.417109	67.462800
6796.700558	0.984544	0.054694	0.986062	70.278421	6.869525	0.000089	-67.168733	-427.168733	-67.168733	0.008725	0.014588	2.830000	0.441340	0.411964	67.755891
6894.603838	0.983604	0.058709	0.985354	70.041613	6.955639	0.000085	-67.472139	-427.472139	-67.472139	0.008494	0.014162	2.830000	0.430477	0.406864	68.045832
6993.917368	0.984148	0.062761	0.986147	69.810814	7.043152	0.000082	-67.771763	-427.771763	-67.771763	0.008269	0.013770	2.830000	0.419844	0.401809	68.332630
7094.661463	0.986126	0.066402	0.988359	69.585798	7.132085	0.000078	-68.067703	-428.067703	-68.067703	0.008052	0.013408	2.830000	0.409437	0.396798	68.616298
7196.856730	0.989352	0.069215	0.991770	69.365703	7.222455	0.000075	-68.360085	-428.360085	-68.360085	0.007844	0.013072	2.830000	0.399253	0.391834	68.896845
7300.524071	0.993517	0.070849	0.996040	69.149084	7.314283	0.000072	-68.649028	-428.649028	-68.649028	0.007642	0.012757	2.830000	0.389290	0.386914	69.174286
7405.684692	0.998208	0.071062	1.000734	68.934052	7.407586	0.000069	-68.934591	-428.934591	-68.934591	0.007445	0.012455	2.830000	0.379543	0.382041	69.448634
7512.360102	1.002948	0.069750	1.005370	68.718464	7.502386	0.000066	-69.216729	-429.216729	-69.216729	0.007249	0.012162	2.830000	0.370011	0.377213	69.719903
7620.572122	1.007241	0.066968	1.009465	68.500173	7.598701	0.000064	-69.495285	-429.495285	-69.495285	0.007052	0.011870	2.830000	0.360689	0.372432	69.988110
7730.342884	1.010626	0.062930	1.012583	68.277271	7.696554	0.000061	-69.770039	-429.770039	-69.770039	0.006854	0.011575	2.830000	0.351574	0.367697	70.253270
7841.694843	1.012729	0.057998	1.014388	68.048314	7.795963	0.000059	-70.040816	-430.040816	-70.040816	0.006657	0.011273	2.830000	0.342664	0.363008	70.515401
7954.650775	1.013311	0.052648	1.014677	67.812477	7.896951	0.000056	-70.307592	-430.307592	-70.307592	0.006466	0.010962	2.830000	0.333955	0.358366	70.774518
8069.233784	1.012305	0.047417	1.013415	67.569637	7.999539	0.000054	-70.570517	-430.570517	-70.570517	0.006284	0.010644	2.830000	0.325443	0.353770	71.030640
8185.467307	1.009834	0.042845	1.010743	67.320404	8.103748	0.000052	-70.829854	-430.829854	-70.829854	0.006113	0.010319	2.830000	0.317125	0.349221	71.283784
8303.375120	1.006206	0.039409	1.006978	67.066091	8.209601	0.000050	-71.085855	-431.085855	-71.085855	0.005951	0.009992	2.830000	0.308999	0.344718	71.533967
8422.981339	1.001886	0.037453	1.002586	66.808638	8.317120	0.000048	-71.338678	-431.338678	-71.338678	0.005794	0.009669	2.830000	0.301060	0.340262	71.781206
8544.310429	0.997441	0.037137	0.998132	66.550434	8.426328	0.000046	-71.588353	-431.588353	-71.588353	0.005639	0.009355	2.830000	0.293306	0.335852	72.025522
8667.387209	0.993472	0.038409	0.994214	66.294050	8.537246	0.000044	-71.834801	-431.834801	-71.834801	0.005485	0.009055	2.830000	0.285733	0.331489	72.266931
8792.236851	0.990530	0.040992	0.991378	66.041895	8.649900	0.000042	-72.077885	-432.077885	-72.077885	0.005332	0.008773	2.830000	0.278338	0.327171	72.505453
8918.884894	0.989036	0.044418	0.990033	65.795840	8.764310	0.000040	-72.317453	-432.317453	-72.317453	0.005178	0.008513	2.830000	0.271118	0.322900	72.741109
9047.357242	0.989207	0.048081	0.990375	65.556884	8.880503	0.000039	-72.553383	-432.553383	-72.553383	0.005025	0.008274	2.830000	0.264069	0.318676	72.973919
9177.680175	0.991016	0.051327	0.992344	65.324935	8.998501	0.000037	-72.785605	-432.785605	-72.785605	0.004875	0.008055	2.830000	0.257188	0.314497	73.203904
9309.880348	0.994179	0.053548	0.995620	65.098775	9.118329	0.000036	-73.014120	-433.014120	-73.014120	0.004729	0.007853	2.830000	0.250472	0.310364	73.431086
9443.984802	0.998188	0.054285	0.999663	64.876218	9.240012	0.000034	-73.239016	-433.239016	-73.239016	0.004589	0.007662	2.830000	0.243918	0.306277	73.655490
9580.020968	1.002381	0.053313	1.003798	64.654462	9.363575	0.000033	-73.460487	-433.460487	-73.460487	0.004457	0.007477	2.830000	0.237522	0.302235	73.877137
9718.016671	1.006046	0.050693	1.007323	64.430542	9.489044	0.000031	-73.678856	-433.678856	-73.678856	0.004336	0.007293	2.830000	0.231282	0.298239	74.096051
9858.000137	1.008546	0.046776	1.009630	64.201827	9.616444	0.000030	-73.894583	-433.894583	-73.894583	0.004228	0.007106	2.830000	0.225194	0.294288	74.312256
10000.000000	1.009432	0.042156	1.010312	63.966461	9.745803	0.000029	-74.108201	-434.108201	-74.108201	0.004132	0.006912	2.830000	0.219255	0.290381	74.525776
10144.045304	1.008544	0.037576	1.009244	63.723710	9.877147	0.000028	-74.320198	-434.320198	-74.320198	0.004046	0.006711	2.830000	0.213462	0.286520	74.736635
10290.165513	1.006053	0.033793	1.006620	63.474159	10.010504	0.000027	-74.530861	-434.530861	-74.530861	0.003964	0.006506	2.830000	0.207812	0.282703	74.944856
10438.390514	1.002447	0.031431	1.002939	63.219711	10.145901	0.000025	-74.740202	-434.740202	-74.740202	0.003882	0.006300	2.830000	0.202302	0.278930	75.150461
10588.750628	0.998453	0.030845	0.998929	62.963339	10.283366	0.000024	-74.948006	-434.948006	-74.948006	0.003796	0.006098	2.830000	0.196929	0.275202	75.353475
10741.276608	0.994896	0.032037	0.995412	62.708546	10.422928	0.000023	-75.153946	-435.153946	-75.153946	0.003705	0.005905	2.830000	0.191690	0.271517	75.553921
10895.999653	0.992533	0.034631	0.993137	62.458629	10.564615	0.000022	-75.357722	-435.357722	-75.357722	0.003612	0.005725	2.830000	0.186582	0.267875	75.751823
11052.951411	0.991877	0.037937	0.992602	62.215886	10.708457	0.000022	-75.559149	-435.559149	-75.559149	0.003519	0.005560	2.830000	0.181603	0.264277	75.947203
11212.163986	0.993073	0.041089	0.993923	61.980978	10.854483	0.000021	-75.758200	-435.758200	-75.758200	0.003428	0.005409	2.830000	0.176749	0.260722	76.140088
11373.669943	0.995842	0.043232	0.996780	61.752658	11.002724	0.000020	-75.954989	-435.954989	-75.954989	0.003342	0.005271	2.830000	0.172018	0.257209	76.330500
11537.502317	0.999522	0.043734	1.000478	61.527979	11.153209	0.000019	-76.149714	-436.149714	-76.149714	0.003262	0.005142	2.830000	0.167407	0.253739	76.518466
11703.694619	1.003211	0.042347	1.004105	61.302963	11.305969	0.000018	-76.342590	-436.342590	-76.342590	0.003187	0.005015	2.830000	0.162914	0.250310	76.704010
11872.280844	1.005981	0.039293	1.006748	61.073563	11.461037	0.000017	-76.533786	-436.533786	-76.533786	0.003115	0.004887	2.830000	0.158535	0.246924	76.887158
12043.295474	1.007117	0.035236	1.007733	60.836693	11.618444	0.000017	-76.723386	-436.723386	-76.723386	0.003045	0.004755	2.830000	0.154268	0.243578	77.067935
12216.773490	1.006320	0.031124	1.006801	60.591047	11.778222	0.000016	-76.911384	-436.911384	-76.911384	0.002976	0.004618	2.830000	0.150111	0.240274	77.246366
12392.750375	1.003812	0.027947	1.004201	60.337519	11.940405	0.000015	-77.097671	-437.097671	-77.097671	0.002905	0.004476	2.830000	0.146060	0.237010	77.422476
12571.262124	1.000302	0.026462	1.000652	60.079070	12.105027	0.000015	-77.282035	-437.282035	-77.282035	0.002832	0.004335	2.830000	0.142115	0.233787	77.596288
12752.345251	0.996808	0.026955	0.997173	59.820009	12.272120	0.000014	-77.464132	-437.464132	-77.464132	0.002754	0.004198	2.830000	0.138271	0.230604	77.767826
12936.036796	0.994371	0.029135	0.994798	59.564800	12.441719	0.000014	-77.643463	-437.643463	-77.643463	0.002669	0.004070	2.830000	0.134527	0.227461	77.937115
13122.374331	0.993733	0.032189	0.994254	59.316718	12.613860	0.000013	-77.819389	-437.819389	-77.819389	0.002575	0.003952	2.830000	0.130880	0.224356	78.104179
13311.395971	0.995091	0.035010	0.995707	59.076769	12.788576	0.000012	-77.991302	-437.991302	-77.991302	0.002477	0.003846	2.830000	0.127328	0.221291	78.269042
13503.140379	0.998001	0.036539	0.998670	58.843264	12.965905	0.000012	-78.158937	-438.158937	-78.158937	0.002381	0.003748	2.830000	0.123869	0.218265	78.431728
13697.646775	1.001490	0.036123	1.002142	58.612247	13.145883	0.000011	-78.322583	-438.322583	-78.322583	0.002295	0.003655	2.830000	0.120500	0.215277	78.592263
13894.954944	1.004365	0.033758	1.004932	58.378724	13.328545	0.000011	-78.482936	-438.482936	-78.482936	0.002222	0.003563	2.830000	0.117220	0.212326	78.750670
14095.105244	1.005614	0.030130	1.006066	58.138392	13.513931	0.000010	-78.640715	-438.640715	-78.640715	0.002159	0.003467	2.830000	0.114025	0.209414	78.906975
14298.138616	1.004792	0.026400	1.005139	57.889263	13.702078	0.000010	-78.796344	-438.796344	-78.796344	0.002100	0.003366	2.830000	0.110915	0.206538	79.061202
14504.096588	1.002209	0.023797	1.002492	57.632563	13.893024	0.000010	-78.949853	-438.949853	-78.949853	0.002040	0.003263	2.830000	0.107887	0.203699	79.213375
14713.021288	0.998858	0.023157	0.999126	57.372504	14.086810	0.000009	-79.100962	-439.100962	-79.100962	0.001977	0.003160	2.830000	0.104939	0.200897	79.363516
14924.955451	0.996058	0.024562	0.996360	57.114868	14.283475	0.000009	-79.249270	-439.249270	-79.249270	0.001910	0.003063	2.830000	0.102069	0.198131	79.511649
15139.942425	0.994937	0.027278	0.995311	56.864780	14.483058	0.000008	-79.394540	-439.394540	-79.394540	0.001844	0.002973	2.830000	0.099275	0.195401	79.657798
15358.026185	0.995957	0.030007	0.996409	56.624492	14.685602	0.000008	-79.536964	-439.536964	-79.536964	0.001786	0.002892	2.830000	0.096556	0.192706	79.801984
15579.251340	0.998675	0.031418	0.999169	56.392195	14.891147	0.000008	-79.677244	-439.677244	-79.677244	0.001739	0.002818	2.830000	0.093909	0.190046	79.944233
15803.663140	1.001892	0.030726	1.002363	56.162595	15.099735	0.000007	-79.816325	-439.816325	-79.816325	0.001705	0.002747	2.830000	0.091332	0.187421	80.084567
16031.307485	1.004157	0.028080	1.004549	55.929185	15.311410	0.000007	-79.954964	-439.954964	-79.954964	0.001679	0.002676	2.830000	0.088824	0.184829	80.223009
16262.230941	1.004422	0.024539	1.004722	55.687226	15.526214	0.000007	-80.093500	-440.093500	-80.093500	0.001654	0.002601	2.830000	0.086383	0.182272	80.359583
16496.480741	1.002570	0.021617	1.002803	55.436007	15.744192	0.000007	-80.231895	-440.231895	-80.231895	0.001628	0.002523	2.830000	0.084008	0.179749	80.494311
16734.104799	0.999514	0.020565	0.999725	55.179313	15.965389	0.000006	-80.369888	-440.369888	-80.369888	0.001598	0.002445	2.830000	0.081696	0.177258	80.627215
16975.151720	0.996797	0.021723	0.997034	54.923712	16.189849	0.000006	-80.507106	-440.507106	-80.507106	0.001564	0.002369	2.830000	0.079446	0.174801	80.758318
17219.670809	0.995823	0.024301	0.996119	54.675263	16.417620	0.000006	-80.643172	-440.643172	-80.643172	0.001527	0.002300	2.830000	0.077257	0.172376	80.887640
17467.712080	0.997102	0.026738	0.997460	54.436172	16.648746	0.000006	-80.777812	-440.777812	-80.777812	0.001489	0.002238	2.830000	0.075127	0.169983	81.015205
17719.326270	0.999926	0.027516	1.000304	54.203323	16.883277	0.000005	-80.910965	-440.910965	-80.910965	0.001452	0.002181	2.830000	0.073054	0.167621	81.141034
17974.564843	1.002704	0.026015	1.003041	53.969750	17.121259	0.000005	-81.042756	-441.042756	-81.042756	0.001417	0.002126	2.830000	0.071037	0.165292	81.265148
18233.480009	1.003834	0.022918	1.004096	53.728438	17.362742	0.000005	-81.173262	-441.173262	-81.173262	0.001383	0.002068	2.830000	0.069075	0.162993	81.387569
18496.124725	1.002655	0.019872	1.002852	53.476400	17.607774	0.000005	-81.302134	-441.302134	-81.302134	0.001342	0.002007	2.830000	0.067166	0.160724	81.508319
18762.552716	0.999895	0.018533	1.000067	53.216725	17.856407	0.000004	-81.428446	-441.428446	-81.428446	0.001290	0.001945	2.830000	0.065308	0.158487	81.627419
19032.818477	0.997287	0.019530	0.997479	52.957150	18.108691	0.000004	-81.551157	-441.551157	-81.551157	0.001232	0.001886	2.830000	0.063501	0.156279	81.744889
19306.977289	0.996507	0.022007	0.996750	52.705411	18.364678	0.000004	-81.669891	-441.669891	-81.669891	0.001175	0.001831	2.830000	0.061743	0.154100	81.860749
19585.085230	0.998058	0.024118	0.998350	52.464061	18.624420	0.000004	-81.785096	-441.785096	-81.785096	0.001127	0.001782	2.830000	0.060033	0.151951	81.975021
19867.199185	1.000878	0.024226	1.001171	52.228544	18.887970	0.000004	-81.897511	-441.897511	-81.897511	0.001087	0.001737	2.830000	0.058369	0.149831	82.087723
20000.000000	1.002071	0.023449	1.002346	52.118411	19.012055	0.000004	-81.949091	-441.949091	-81.949091	0.001071	0.001716	2.830000	0.057610	0.148853	82.139693
