Freq (hertz)	Ra (norm)	Xa (norm)	Za (norm)	SPL (dB)	Ze (ohms)	Xd (mm) 	WPhase (deg)	UPhase (deg)	CPhase (deg)	Delay (msec)	Efficiency (%)	Ein (volts)	Pin (watts)	Iin (amps)	ZePhase (deg)

10.000000	0.000002	0.022703	0.022703	-36.828759	6.520479	0.368864	175.354284	175.354284	175.354284	1.289244	0.000000	2.830000	1.225217	0.434017	4.039902
10.144045	0.000002	0.023030	0.023030	-36.331941	6.521074	0.368848	175.287430	175.287430	175.287430	1.289191	0.000000	2.830000	1.225016	0.433978	4.098001
10.290166	0.000002	0.023362	0.023362	-35.835126	6.521687	0.368831	175.219616	175.219616	175.219616	1.289135	0.000000	2.830000	1.224810	0.433937	4.156933
10.438391	0.000002	0.023699	0.023699	-35.338314	6.522317	0.368813	175.150827	175.150827	175.150827	1.289079	0.000000	2.830000	1.224599	0.433895	4.216710
10.588751	0.000002	0.024041	0.024041	-34.841503	6.522966	0.368795	175.081052	175.081052	175.081052	1.289020	0.000000	2.830000	1.224381	0.433852	4.277344
10.741277	0.000002	0.024388	0.024388	-34.344696	6.523634	0.368777	175.010274	175.010274	175.010274	1.288960	0.000000	2.830000	1.224156	0.433807	4.338846
10.896000	0.000002	0.024739	0.024739	-33.847890	6.524321	0.368758	174.938480	174.938480	174.938480	1.288899	0.000000	2.830000	1.223926	0.433762	4.401229
11.052951	0.000002	0.025096	0.025096	-33.351087	6.525028	0.368738	174.865656	174.865656	174.865656	1.288835	0.000000	2.830000	1.223688	0.433715	4.464506
11.212164	0.000002	0.025458	0.025458	-32.854287	6.525755	0.368718	174.791786	174.791786	174.791786	1.288770	0.000000	2.830000	1.223444	0.433666	4.528689
11.373670	0.000002	0.025825	0.025825	-32.357489	6.526504	0.368697	174.716856	174.716856	174.716856	1.288702	0.000000	2.830000	1.223193	0.433617	4.593791
11.537502	0.000002	0.026198	0.026198	-31.860694	6.527275	0.368676	174.640851	174.640851	174.640851	1.288633	0.000000	2.830000	1.222934	0.433565	4.659825
11.703695	0.000002	0.026576	0.026576	-31.363902	6.528068	0.368653	174.563755	174.563755	174.563755	1.288562	0.000000	2.830000	1.222668	0.433513	4.726804
11.872281	0.000002	0.026959	0.026959	-30.867113	6.528884	0.368631	174.485553	174.485553	174.485553	1.288489	0.000000	2.830000	1.222395	0.433458	4.794741
12.043295	0.000003	0.027348	0.027348	-30.370327	6.529724	0.368608	174.406230	174.406230	174.406230	1.288413	0.000000	2.830000	1.222113	0.433403	4.863651
12.216773	0.000003	0.027742	0.027742	-29.873544	6.530589	0.368584	174.325768	174.325768	174.325768	1.288336	0.000000	2.830000	1.221824	0.433345	4.933546
12.392750	0.000003	0.028142	0.028142	-29.376765	6.531479	0.368559	174.244152	174.244152	174.244152	1.288256	0.000000	2.830000	1.221526	0.433286	5.004442
12.571262	0.000003	0.028548	0.028548	-28.879988	6.532394	0.368533	174.161366	174.161366	174.161366	1.288174	0.000000	2.830000	1.221219	0.433226	5.076350
12.752345	0.000003	0.028960	0.028960	-28.383215	6.533337	0.368507	174.077393	174.077393	174.077393	1.288089	0.000000	2.830000	1.220904	0.433163	5.149287
12.936037	0.000003	0.029378	0.029378	-27.886445	6.534307	0.368480	173.992216	173.992216	173.992216	1.288002	0.000000	2.830000	1.220580	0.433099	5.223267
13.122374	0.000003	0.029802	0.029802	-27.389679	6.535305	0.368453	173.905818	173.905818	173.905818	1.287913	0.000000	2.830000	1.220246	0.433033	5.298303
13.311396	0.000003	0.030232	0.030232	-26.892917	6.536332	0.368424	173.818181	173.818181	173.818181	1.287821	0.000000	2.830000	1.219903	0.432965	5.374412
13.503140	0.000003	0.030668	0.030668	-26.396158	6.537390	0.368395	173.729289	173.729289	173.729289	1.287726	0.000000	2.830000	1.219550	0.432895	5.451607
13.697647	0.000003	0.031111	0.031111	-25.899403	6.538478	0.368365	173.639123	173.639123	173.639123	1.287629	0.000000	2.830000	1.219187	0.432822	5.529905
13.894955	0.000003	0.031560	0.031560	-25.402652	6.539598	0.368334	173.547665	173.547665	173.547665	1.287528	0.000000	2.830000	1.218813	0.432748	5.609321
14.095105	0.000003	0.032015	0.032015	-24.905905	6.540750	0.368302	173.454897	173.454897	173.454897	1.287425	0.000000	2.830000	1.218429	0.432672	5.689870
14.298139	0.000004	0.032477	0.032477	-24.409162	6.541936	0.368269	173.360800	173.360800	173.360800	1.287319	0.000000	2.830000	1.218034	0.432594	5.771568
14.504097	0.000004	0.032946	0.032946	-23.912424	6.543157	0.368236	173.265356	173.265356	173.265356	1.287210	0.000000	2.830000	1.217627	0.432513	5.854432
14.713021	0.000004	0.033422	0.033422	-23.415690	6.544414	0.368201	173.168545	173.168545	173.168545	1.287098	0.000000	2.830000	1.217209	0.432430	5.938477
14.924955	0.000004	0.033904	0.033904	-22.918960	6.545707	0.368165	173.070349	173.070349	173.070349	1.286982	0.000000	2.830000	1.216779	0.432344	6.023721
15.139942	0.000004	0.034394	0.034394	-22.422236	6.547038	0.368128	172.970747	172.970747	172.970747	1.286864	0.000000	2.830000	1.216337	0.432257	6.110179
15.358026	0.000004	0.034890	0.034890	-21.925516	6.548408	0.368091	172.869720	172.869720	172.869720	1.286741	0.000000	2.830000	1.215881	0.432166	6.197869
15.579251	0.000004	0.035394	0.035394	-21.428800	6.549818	0.368052	172.767248	172.767248	172.767248	1.286615	0.000000	2.830000	1.215413	0.432073	6.286809
15.803663	0.000004	0.035905	0.035905	-20.932090	6.551270	0.368012	172.663309	172.663309	172.663309	1.286486	0.000000	2.830000	1.214932	0.431977	6.377014
16.031307	0.000004	0.036423	0.036423	-20.435385	6.552764	0.367970	172.557885	172.557885	172.557885	1.286353	0.000000	2.830000	1.214436	0.431879	6.468503
16.262231	0.000005	0.036949	0.036949	-19.938686	6.554301	0.367928	172.450953	172.450953	172.450953	1.286216	0.000000	2.830000	1.213927	0.431778	6.561294
16.496481	0.000005	0.037483	0.037483	-19.441992	6.555883	0.367885	172.342492	172.342492	172.342492	1.286075	0.000000	2.830000	1.213403	0.431673	6.655405
16.734105	0.000005	0.038024	0.038024	-18.945303	6.557512	0.367840	172.232481	172.232481	172.232481	1.285930	0.000000	2.830000	1.212864	0.431566	6.750854
16.975152	0.000005	0.038574	0.038574	-18.448621	6.559189	0.367794	172.120899	172.120899	172.120899	1.285781	0.000001	2.830000	1.212310	0.431456	6.847659
17.219671	0.000005	0.039131	0.039131	-17.951944	6.560914	0.367746	172.007722	172.007722	172.007722	1.285628	0.000001	2.830000	1.211740	0.431342	6.945840
17.467712	0.000005	0.039696	0.039696	-17.455273	6.562690	0.367697	171.892929	171.892929	171.892929	1.285470	0.000001	2.830000	1.211154	0.431226	7.045415
17.719326	0.000005	0.040270	0.040270	-16.958609	6.564518	0.367647	171.776497	171.776497	171.776497	1.285308	0.000001	2.830000	1.210551	0.431105	7.146403
17.974565	0.000006	0.040852	0.040852	-16.461951	6.566400	0.367595	171.658403	171.658403	171.658403	1.285141	0.000001	2.830000	1.209931	0.430982	7.248825
18.233480	0.000006	0.041442	0.041442	-15.965300	6.568337	0.367542	171.538624	171.538624	171.538624	1.284969	0.000001	2.830000	1.209293	0.430855	7.352699
18.496125	0.000006	0.042041	0.042041	-15.468655	6.570331	0.367488	171.417136	171.417136	171.417136	1.284792	0.000001	2.830000	1.208637	0.430724	7.458045
18.762553	0.000006	0.042649	0.042649	-14.972017	6.572383	0.367431	171.293915	171.293915	171.293915	1.284611	0.000001	2.830000	1.207963	0.430590	7.564884
19.032818	0.000006	0.043265	0.043265	-14.475387	6.574495	0.367374	171.168937	171.168937	171.168937	1.284424	0.000001	2.830000	1.207269	0.430451	7.673236
19.306977	0.000006	0.043890	0.043890	-13.978764	6.576670	0.367314	171.042178	171.042178	171.042178	1.284231	0.000001	2.830000	1.206556	0.430309	7.783122
19.585085	0.000007	0.044525	0.044525	-13.482148	6.578908	0.367253	170.913612	170.913612	170.913612	1.284033	0.000001	2.830000	1.205823	0.430163	7.894563
19.867199	0.000007	0.045169	0.045169	-12.985540	6.581212	0.367190	170.783214	170.783214	170.783214	1.283830	0.000001	2.830000	1.205068	0.430012	8.007579
20.153377	0.000007	0.045822	0.045822	-12.488940	6.583584	0.367125	170.650960	170.650960	170.650960	1.283621	0.000001	2.830000	1.204293	0.429857	8.122193
20.443677	0.000007	0.046485	0.046485	-11.992348	6.586025	0.367059	170.516822	170.516822	170.516822	1.283405	0.000001	2.830000	1.203495	0.429698	8.238426
20.738158	0.000007	0.047157	0.047157	-11.495764	6.588539	0.366990	170.380776	170.380776	170.380776	1.283184	0.000001	2.830000	1.202675	0.429534	8.356299
21.036882	0.000008	0.047839	0.047839	-10.999189	6.591126	0.366919	170.242794	170.242794	170.242794	1.282956	0.000001	2.830000	1.201832	0.429365	8.475836
21.339908	0.000008	0.048531	0.048531	-10.502623	6.593789	0.366847	170.102850	170.102850	170.102850	1.282722	0.000001	2.830000	1.200965	0.429192	8.597058
21.647300	0.000008	0.049234	0.049234	-10.006065	6.596531	0.366772	169.960916	169.960916	169.960916	1.282481	0.000001	2.830000	1.200074	0.429013	8.719988
21.959119	0.000008	0.049946	0.049946	-9.509517	6.599354	0.366696	169.816965	169.816965	169.816965	1.282233	0.000001	2.830000	1.199158	0.428830	8.844649
22.275430	0.000009	0.050669	0.050669	-9.012979	6.602259	0.366617	169.670969	169.670969	169.670969	1.281978	0.000002	2.830000	1.198215	0.428641	8.971064
22.596297	0.000009	0.051402	0.051402	-8.516450	6.605251	0.366536	169.522900	169.522900	169.522900	1.281716	0.000002	2.830000	1.197247	0.428447	9.099257
22.921786	0.000009	0.052147	0.052147	-8.019931	6.608330	0.366452	169.372730	169.372730	169.372730	1.281446	0.000002	2.830000	1.196251	0.428247	9.229252
23.251963	0.000009	0.052902	0.052902	-7.523422	6.611501	0.366366	169.220428	169.220428	169.220428	1.281169	0.000002	2.830000	1.195227	0.428042	9.361072
23.586897	0.000010	0.053668	0.053668	-7.026923	6.614765	0.366278	169.065967	169.065967	169.065967	1.280883	0.000002	2.830000	1.194175	0.427831	9.494742
23.926655	0.000010	0.054445	0.054445	-6.530436	6.618125	0.366187	168.909317	168.909317	168.909317	1.280590	0.000002	2.830000	1.193093	0.427614	9.630285
24.271307	0.000010	0.055234	0.055234	-6.033959	6.621585	0.366094	168.750446	168.750446	168.750446	1.280288	0.000002	2.830000	1.191980	0.427390	9.767728
24.620924	0.000011	0.056034	0.056034	-5.537493	6.625147	0.365998	168.589326	168.589326	168.589326	1.279978	0.000002	2.830000	1.190837	0.427160	9.907095
24.975577	0.000011	0.056846	0.056846	-5.041039	6.628815	0.365899	168.425925	168.425925	168.425925	1.279659	0.000002	2.830000	1.189662	0.426924	10.048411
25.335338	0.000011	0.057670	0.057670	-4.544597	6.632591	0.365797	168.260213	168.260213	168.260213	1.279330	0.000003	2.830000	1.188454	0.426681	10.191701
25.700282	0.000012	0.058506	0.058506	-4.048167	6.636479	0.365693	168.092157	168.092157	168.092157	1.278993	0.000003	2.830000	1.187212	0.426431	10.336992
26.070482	0.000012	0.059354	0.059354	-3.551749	6.640482	0.365585	167.921726	167.921726	167.921726	1.278646	0.000003	2.830000	1.185936	0.426174	10.484310
26.446016	0.000012	0.060215	0.060215	-3.055344	6.644604	0.365475	167.748887	167.748887	167.748887	1.278289	0.000003	2.830000	1.184625	0.425909	10.633680
26.826958	0.000013	0.061088	0.061088	-2.558952	6.648849	0.365361	167.573609	167.573609	167.573609	1.277922	0.000003	2.830000	1.183277	0.425638	10.785130
27.213388	0.000013	0.061975	0.061975	-2.062573	6.653219	0.365244	167.395857	167.395857	167.395857	1.277544	0.000003	2.830000	1.181892	0.425358	10.938686
27.605384	0.000013	0.062874	0.062874	-1.566208	6.657719	0.365124	167.215599	167.215599	167.215599	1.277156	0.000004	2.830000	1.180468	0.425071	11.094375
28.003026	0.000014	0.063787	0.063787	-1.069856	6.662353	0.365000	167.032801	167.032801	167.032801	1.276757	0.000004	2.830000	1.179005	0.424775	11.252225
28.406397	0.000014	0.064713	0.064713	-0.573519	6.667125	0.364873	166.847429	166.847429	166.847429	1.276347	0.000004	2.830000	1.177502	0.424471	11.412262
28.815578	0.000015	0.065652	0.065652	-0.077196	6.672039	0.364742	166.659447	166.659447	166.659447	1.275925	0.000004	2.830000	1.175958	0.424158	11.574516
29.230652	0.000015	0.066606	0.066606	0.419112	6.677099	0.364608	166.468822	166.468822	166.468822	1.275491	0.000005	2.830000	1.174371	0.423837	11.739013
29.651706	0.000016	0.067573	0.067573	0.915405	6.682311	0.364470	166.275518	166.275518	166.275518	1.275045	0.000005	2.830000	1.172740	0.423506	11.905783
30.078825	0.000016	0.068555	0.068555	1.411682	6.687677	0.364327	166.079498	166.079498	166.079498	1.274586	0.000005	2.830000	1.171065	0.423166	12.074853
30.512097	0.000017	0.069552	0.069552	1.907943	6.693205	0.364181	165.880728	165.880728	165.880728	1.274115	0.000006	2.830000	1.169344	0.422817	12.246252
30.951609	0.000017	0.070563	0.070563	2.404189	6.698897	0.364031	165.679170	165.679170	165.679170	1.273630	0.000006	2.830000	1.167576	0.422458	12.420009
31.397452	0.000018	0.071589	0.071589	2.900418	6.704760	0.363877	165.474788	165.474788	165.474788	1.273132	0.000006	2.830000	1.165759	0.422088	12.596154
31.849718	0.000018	0.072630	0.072630	3.396630	6.710798	0.363718	165.267544	165.267544	165.267544	1.272619	0.000007	2.830000	1.163894	0.421708	12.774715
32.308498	0.000019	0.073687	0.073687	3.892824	6.717018	0.363555	165.057400	165.057400	165.057400	1.272093	0.000007	2.830000	1.161977	0.421318	12.955722
32.773887	0.000019	0.074760	0.074760	4.389002	6.723423	0.363387	164.844319	164.844319	164.844319	1.271551	0.000007	2.830000	1.160009	0.420917	13.139206
33.245979	0.000020	0.075848	0.075848	4.885161	6.730022	0.363214	164.628262	164.628262	164.628262	1.270995	0.000008	2.830000	1.157988	0.420504	13.325195
33.724872	0.000020	0.076953	0.076953	5.381302	6.736819	0.363037	164.409190	164.409190	164.409190	1.270423	0.000008	2.830000	1.155911	0.420080	13.513720
34.210663	0.000021	0.078074	0.078074	5.877425	6.743820	0.362854	164.187063	164.187063	164.187063	1.269835	0.000009	2.830000	1.153779	0.419643	13.704812
34.703452	0.000022	0.079212	0.079212	6.373528	6.751032	0.362667	163.961843	163.961843	163.961843	1.269230	0.000009	2.830000	1.151590	0.419195	13.898500
35.203338	0.000022	0.080366	0.080366	6.869613	6.758462	0.362474	163.733489	163.733489	163.733489	1.268609	0.000010	2.830000	1.149342	0.418734	14.094815
35.710426	0.000023	0.081538	0.081538	7.365677	6.766116	0.362276	163.501961	163.501961	163.501961	1.267970	0.000011	2.830000	1.147034	0.418261	14.293789
36.224818	0.000024	0.082728	0.082728	7.861722	6.774002	0.362072	163.267217	163.267217	163.267217	1.267314	0.000011	2.830000	1.144664	0.417774	14.495451
36.746619	0.000024	0.083935	0.083935	8.357747	6.782126	0.361863	163.029217	163.029217	163.029217	1.266640	0.000012	2.830000	1.142231	0.417273	14.699833
37.275937	0.000025	0.085161	0.085161	8.853750	6.790496	0.361648	162.787920	162.787920	162.787920	1.265947	0.000013	2.830000	1.139734	0.416759	14.906967
37.812880	0.000026	0.086404	0.086404	9.349733	6.799120	0.361427	162.543282	162.543282	162.543282	1.265234	0.000013	2.830000	1.137170	0.416230	15.116882
38.357556	0.000027	0.087667	0.087667	9.845695	6.808007	0.361200	162.295262	162.295262	162.295262	1.264502	0.000014	2.830000	1.134539	0.415687	15.329611
38.910079	0.000027	0.088948	0.088948	10.341635	6.817163	0.360966	162.043816	162.043816	162.043816	1.263750	0.000015	2.830000	1.131839	0.415129	15.545185
39.470560	0.000028	0.090249	0.090249	10.837553	6.826599	0.360726	161.788903	161.788903	161.788903	1.262978	0.000016	2.830000	1.129067	0.414555	15.763636
40.039115	0.000029	0.091570	0.091570	11.333449	6.836322	0.360479	161.530478	161.530478	161.530478	1.262184	0.000017	2.830000	1.126224	0.413965	15.984994
40.615860	0.000030	0.092910	0.092910	11.829322	6.846343	0.360226	161.268498	161.268498	161.268498	1.261368	0.000018	2.830000	1.123305	0.413359	16.209291
41.200912	0.000031	0.094270	0.094270	12.325173	6.856670	0.359966	161.002918	161.002918	161.002918	1.260530	0.000019	2.830000	1.120311	0.412737	16.436559
41.794392	0.000032	0.095652	0.095652	12.821000	6.867313	0.359698	160.733694	160.733694	160.733694	1.259668	0.000020	2.830000	1.117240	0.412097	16.666829
42.396421	0.000033	0.097054	0.097054	13.316804	6.878283	0.359423	160.460782	160.460782	160.460782	1.258784	0.000022	2.830000	1.114089	0.411440	16.900133
43.007121	0.000034	0.098477	0.098477	13.812585	6.889590	0.359141	160.184135	160.184135	160.184135	1.257875	0.000023	2.830000	1.110857	0.410765	17.136502
43.626619	0.000035	0.099922	0.099922	14.308342	6.901246	0.358850	159.903709	159.903709	159.903709	1.256942	0.000024	2.830000	1.107542	0.410071	17.375967
44.255040	0.000036	0.101389	0.101389	14.804075	6.913261	0.358552	159.619457	159.619457	159.619457	1.255983	0.000026	2.830000	1.104142	0.409358	17.618559
44.892513	0.000037	0.102879	0.102879	15.299784	6.925647	0.358246	159.331334	159.331334	159.331334	1.254998	0.000027	2.830000	1.100656	0.408626	17.864310
45.539168	0.000038	0.104391	0.104391	15.795469	6.938416	0.357931	159.039293	159.039293	159.039293	1.253987	0.000029	2.830000	1.097082	0.407874	18.113249
46.195138	0.000040	0.105926	0.105926	16.291129	6.951582	0.357608	158.743287	158.743287	158.743287	1.252948	0.000031	2.830000	1.093417	0.407102	18.365409
46.860558	0.000041	0.107485	0.107485	16.786765	6.965157	0.357276	158.443270	158.443270	158.443270	1.251881	0.000033	2.830000	1.089660	0.406308	18.620819
47.535562	0.000042	0.109068	0.109068	17.282377	6.979154	0.356935	158.139193	158.139193	158.139193	1.250786	0.000035	2.830000	1.085809	0.405493	18.879509
48.220290	0.000043	0.110675	0.110675	17.777964	6.993588	0.356585	157.831011	157.831011	157.831011	1.249662	0.000037	2.830000	1.081863	0.404656	19.141510
48.914880	0.000045	0.112307	0.112307	18.273526	7.008473	0.356226	157.518673	157.518673	157.518673	1.248507	0.000039	2.830000	1.077818	0.403797	19.406850
49.619476	0.000046	0.113964	0.113964	18.769064	7.023825	0.355856	157.202134	157.202134	157.202134	1.247321	0.000042	2.830000	1.073673	0.402914	19.675560
50.334221	0.000048	0.115646	0.115646	19.264578	7.039659	0.355477	156.881344	156.881344	156.881344	1.246104	0.000044	2.830000	1.069427	0.402008	19.947667
51.059262	0.000049	0.117355	0.117355	19.760068	7.055991	0.355088	156.556255	156.556255	156.556255	1.244855	0.000047	2.830000	1.065077	0.401078	20.223200
51.794747	0.000051	0.119091	0.119091	20.255534	7.072838	0.354688	156.226819	156.226819	156.226819	1.243572	0.000050	2.830000	1.060622	0.400122	20.502188
52.540826	0.000052	0.120853	0.120853	20.750977	7.090219	0.354278	155.892986	155.892986	155.892986	1.242256	0.000053	2.830000	1.056059	0.399141	20.784657
53.297652	0.000054	0.122643	0.122643	21.246396	7.108150	0.353856	155.554708	155.554708	155.554708	1.240905	0.000056	2.830000	1.051386	0.398135	21.070633
54.065379	0.000056	0.124461	0.124461	21.741792	7.126651	0.353424	155.211936	155.211936	155.211936	1.239519	0.000060	2.830000	1.046602	0.397101	21.360144
54.844166	0.000058	0.126307	0.126307	22.237167	7.145742	0.352980	154.864619	154.864619	154.864619	1.238096	0.000064	2.830000	1.041704	0.396040	21.653215
55.634170	0.000059	0.128183	0.128183	22.732519	7.165443	0.352524	154.512710	154.512710	154.512710	1.236636	0.000068	2.830000	1.036690	0.394951	21.949869
56.435554	0.000061	0.130088	0.130088	23.227850	7.185775	0.352056	154.156158	154.156158	154.156158	1.235139	0.000072	2.830000	1.031560	0.393834	22.250131
57.248482	0.000063	0.132023	0.132023	23.723161	7.206760	0.351576	153.794914	153.794914	153.794914	1.233602	0.000077	2.830000	1.026309	0.392687	22.554024
58.073119	0.000065	0.133989	0.133989	24.218453	7.228422	0.351084	153.428929	153.428929	153.428929	1.232026	0.000081	2.830000	1.020938	0.391510	22.861570
58.909635	0.000068	0.135986	0.135986	24.713726	7.250785	0.350578	153.058153	153.058153	153.058153	1.230409	0.000087	2.830000	1.015443	0.390303	23.172789
59.758201	0.000070	0.138015	0.138015	25.208982	7.273872	0.350060	152.682536	152.682536	152.682536	1.228751	0.000092	2.830000	1.009824	0.389064	23.487702
60.618990	0.000072	0.140077	0.140077	25.704221	7.297711	0.349528	152.302029	152.302029	152.302029	1.227050	0.000098	2.830000	1.004077	0.387793	23.806327
61.492178	0.000075	0.142171	0.142171	26.199446	7.322328	0.348982	151.916582	151.916582	151.916582	1.225306	0.000104	2.830000	0.998202	0.386489	24.128682
62.377944	0.000077	0.144299	0.144299	26.694657	7.347752	0.348422	151.526146	151.526146	151.526146	1.223518	0.000111	2.830000	0.992196	0.385152	24.454782
63.276469	0.000080	0.146462	0.146462	27.189856	7.374011	0.347848	151.130672	151.130672	151.130672	1.221684	0.000118	2.830000	0.986058	0.383780	24.784643
64.187937	0.000082	0.148659	0.148659	27.685046	7.401137	0.347259	150.730111	150.730111	150.730111	1.219805	0.000126	2.830000	0.979785	0.382374	25.118277
65.112534	0.000085	0.150892	0.150892	28.180228	7.429161	0.346655	150.324413	150.324413	150.324413	1.217878	0.000134	2.830000	0.973378	0.380931	25.455697
66.050449	0.000088	0.153162	0.153162	28.675403	7.458116	0.346036	149.913529	149.913529	149.913529	1.215904	0.000143	2.830000	0.966833	0.379452	25.796911
67.001875	0.000091	0.155469	0.155469	29.170575	7.488038	0.345401	149.497412	149.497412	149.497412	1.213880	0.000152	2.830000	0.960149	0.377936	26.141927
67.967006	0.000094	0.157813	0.157813	29.665747	7.518963	0.344750	149.076013	149.076013	149.076013	1.211807	0.000162	2.830000	0.953325	0.376382	26.490752
68.946038	0.000097	0.160196	0.160196	30.160920	7.550928	0.344083	148.649283	148.649283	148.649283	1.209682	0.000172	2.830000	0.946360	0.374788	26.843389
69.939174	0.000101	0.162619	0.162619	30.656098	7.583973	0.343399	148.217175	148.217175	148.217175	1.207506	0.000184	2.830000	0.939251	0.373155	27.199839
70.946615	0.000104	0.165082	0.165082	31.151284	7.618140	0.342698	147.779642	147.779642	147.779642	1.205277	0.000196	2.830000	0.931999	0.371482	27.560102
71.968567	0.000108	0.167586	0.167586	31.646482	7.653472	0.341980	147.336637	147.336637	147.336637	1.202993	0.000209	2.830000	0.924601	0.369767	27.924175
73.005241	0.000111	0.170132	0.170132	32.141695	7.690015	0.341244	146.888112	146.888112	146.888112	1.200655	0.000222	2.830000	0.917057	0.368010	28.292050
74.056847	0.000115	0.172721	0.172721	32.636929	7.727815	0.340489	146.434023	146.434023	146.434023	1.198261	0.000237	2.830000	0.909366	0.366210	28.663720
75.123601	0.000119	0.175353	0.175354	33.132186	7.766924	0.339717	145.974323	145.974323	145.974323	1.195811	0.000253	2.830000	0.901526	0.364366	29.039171
76.205721	0.000124	0.178031	0.178031	33.627473	7.807392	0.338926	145.508967	145.508967	145.508967	1.193302	0.000270	2.830000	0.893538	0.362477	29.418389
77.303429	0.000128	0.180754	0.180754	34.122794	7.849274	0.338115	145.037910	145.037910	145.037910	1.190734	0.000288	2.830000	0.885401	0.360543	29.801354
78.416948	0.000133	0.183524	0.183524	34.618155	7.892629	0.337285	144.561110	144.561110	144.561110	1.188107	0.000308	2.830000	0.877113	0.358562	30.188045
79.546508	0.000137	0.186341	0.186341	35.113563	7.937516	0.336435	144.078523	144.078523	144.078523	1.185419	0.000329	2.830000	0.868676	0.356535	30.578435
80.692338	0.000142	0.189207	0.189207	35.609022	7.983998	0.335565	143.590105	143.590105	143.590105	1.182669	0.000351	2.830000	0.860089	0.354459	30.972493
81.854673	0.000147	0.192123	0.192124	36.104542	8.032142	0.334675	143.095816	143.095816	143.095816	1.179856	0.000375	2.830000	0.851351	0.352334	31.370185
83.033751	0.000153	0.195091	0.195091	36.600128	8.082018	0.333763	142.595615	142.595615	142.595615	1.176980	0.000401	2.830000	0.842464	0.350160	31.771470
84.229813	0.000159	0.198110	0.198110	37.095790	8.133699	0.332830	142.089460	142.089460	142.089460	1.174039	0.000428	2.830000	0.833427	0.347935	32.176304
85.443104	0.000164	0.201183	0.201184	37.591535	8.187263	0.331876	141.577314	141.577314	141.577314	1.171032	0.000458	2.830000	0.824241	0.345659	32.584638
86.673872	0.000171	0.204311	0.204311	38.087374	8.242790	0.330899	141.059137	141.059137	141.059137	1.167959	0.000490	2.830000	0.814906	0.343330	32.996415
87.922369	0.000177	0.207495	0.207495	38.583315	8.300368	0.329900	140.534892	140.534892	140.534892	1.164819	0.000524	2.830000	0.805425	0.340949	33.411574
89.188849	0.000184	0.210737	0.210737	39.079370	8.360087	0.328879	140.004543	140.004543	140.004543	1.161611	0.000561	2.830000	0.795797	0.338513	33.830047
90.473572	0.000191	0.214037	0.214037	39.575550	8.422042	0.327834	139.468055	139.468055	139.468055	1.158334	0.000601	2.830000	0.786025	0.336023	34.251760
91.776802	0.000198	0.217398	0.217398	40.071868	8.486334	0.326766	138.925392	138.925392	138.925392	1.154988	0.000644	2.830000	0.776110	0.333477	34.676630
93.098803	0.000206	0.220821	0.220821	40.568335	8.553071	0.325674	138.376522	138.376522	138.376522	1.151571	0.000689	2.830000	0.766054	0.330875	35.104568
94.439848	0.000214	0.224307	0.224307	41.064966	8.622364	0.324558	137.821412	137.821412	137.821412	1.148082	0.000739	2.830000	0.755859	0.328216	35.535475
95.800210	0.000222	0.227859	0.227859	41.561777	8.694334	0.323417	137.260032	137.260032	137.260032	1.144523	0.000792	2.830000	0.745527	0.325499	35.969245
97.180167	0.000231	0.231477	0.231477	42.058782	8.769107	0.322252	136.692352	136.692352	136.692352	1.140890	0.000850	2.830000	0.735062	0.322724	36.405762
98.580001	0.000240	0.235164	0.235164	42.555998	8.846818	0.321062	136.118344	136.118344	136.118344	1.137185	0.000912	2.830000	0.724466	0.319889	36.844899
100.000000	0.000250	0.238922	0.238922	43.053444	8.927608	0.319846	135.537981	135.537981	135.537981	1.133406	0.000979	2.830000	0.713742	0.316994	37.286519
101.440453	0.000260	0.242752	0.242752	43.551140	9.011629	0.318604	134.951236	134.951236	134.951236	1.129554	0.001052	2.830000	0.702894	0.314039	37.730473
102.901655	0.000271	0.246657	0.246657	44.049104	9.099042	0.317337	134.358086	134.358086	134.358086	1.125627	0.001131	2.830000	0.691927	0.311022	38.176602
104.383905	0.000282	0.250638	0.250638	44.547360	9.190018	0.316043	133.758507	133.758507	133.758507	1.121625	0.001215	2.830000	0.680843	0.307943	38.624729
105.887506	0.000294	0.254698	0.254698	45.045931	9.284739	0.314722	133.152478	133.152478	133.152478	1.117549	0.001307	2.830000	0.669648	0.304801	39.074667
107.412766	0.000306	0.258840	0.258840	45.544842	9.383399	0.313375	132.539978	132.539978	132.539978	1.113397	0.001407	2.830000	0.658347	0.301596	39.526212
108.959997	0.000320	0.263065	0.263065	46.044119	9.486206	0.312000	131.920989	131.920989	131.920989	1.109171	0.001515	2.830000	0.646944	0.298328	39.979143
110.529514	0.000333	0.267377	0.267377	46.543791	9.593379	0.310598	131.295493	131.295493	131.295493	1.104869	0.001632	2.830000	0.635446	0.294995	40.433222
112.121640	0.000348	0.271777	0.271777	47.043887	9.705157	0.309168	130.663475	130.663475	130.663475	1.100492	0.001759	2.830000	0.623858	0.291598	40.888191
113.736699	0.000363	0.276269	0.276269	47.544441	9.821791	0.307710	130.024919	130.024919	130.024919	1.096040	0.001898	2.830000	0.612186	0.288135	41.343772
115.375023	0.000379	0.280855	0.280856	48.045485	9.943554	0.306225	129.379812	129.379812	129.379812	1.091514	0.002048	2.830000	0.600437	0.284606	41.799664
117.036946	0.000397	0.285539	0.285540	48.547058	10.070736	0.304711	128.728144	128.728144	128.728144	1.086913	0.002212	2.830000	0.588618	0.281012	42.255540
118.722808	0.000415	0.290324	0.290325	49.049197	10.203649	0.303168	128.069903	128.069903	128.069903	1.082239	0.002390	2.830000	0.576736	0.277352	42.711049
120.432955	0.000434	0.295214	0.295214	49.551944	10.342630	0.301597	127.405080	127.405080	127.405080	1.077493	0.002584	2.830000	0.564799	0.273625	43.165809
122.167735	0.000454	0.300211	0.300211	50.055343	10.488041	0.299997	126.733668	126.733668	126.733668	1.072674	0.002796	2.830000	0.552815	0.269831	43.619408
123.927504	0.000475	0.305320	0.305320	50.559442	10.640271	0.298368	126.055660	126.055660	126.055660	1.067784	0.003028	2.830000	0.540793	0.265971	44.071397
125.712621	0.000498	0.310544	0.310544	51.064290	10.799741	0.296711	125.371050	125.371050	125.371050	1.062825	0.003281	2.830000	0.528741	0.262043	44.521292
127.523453	0.000522	0.315888	0.315889	51.569942	10.966907	0.295024	124.679835	124.679835	124.679835	1.057797	0.003559	2.830000	0.516668	0.258049	44.968565
129.360368	0.000548	0.321357	0.321357	52.076452	11.142261	0.293308	123.982010	123.982010	123.982010	1.052702	0.003862	2.830000	0.504585	0.253988	45.412643
131.223743	0.000575	0.326954	0.326954	52.583884	11.326338	0.291562	123.277572	123.277572	123.277572	1.047542	0.004195	2.830000	0.492500	0.249860	45.852905
133.113960	0.000604	0.332685	0.332686	53.092300	11.519718	0.289788	122.566521	122.566521	122.566521	1.042320	0.004561	2.830000	0.480424	0.245666	46.288671
135.031404	0.000635	0.338556	0.338556	53.601771	11.723032	0.287984	121.848853	121.848853	121.848853	1.037036	0.004963	2.830000	0.468368	0.241405	46.719201
136.976468	0.000669	0.344571	0.344572	54.112370	11.936966	0.286151	121.124568	121.124568	121.124568	1.031694	0.005405	2.830000	0.456343	0.237079	47.143687
138.949549	0.000704	0.350737	0.350738	54.624175	12.162272	0.284289	120.393665	120.393665	120.393665	1.026296	0.005892	2.830000	0.444359	0.232687	47.561245
140.951052	0.000742	0.357060	0.357061	55.137270	12.399768	0.282398	119.656141	119.656141	119.656141	1.020846	0.006428	2.830000	0.432429	0.228230	47.970906
142.981386	0.000782	0.363547	0.363548	55.651744	12.650353	0.280477	118.911995	118.911995	118.911995	1.015347	0.007021	2.830000	0.420564	0.223709	48.371607
145.040966	0.000825	0.370206	0.370207	56.167693	12.915012	0.278528	118.161225	118.161225	118.161225	1.009803	0.007676	2.830000	0.408777	0.219125	48.762179
147.130213	0.000872	0.377043	0.377044	56.685220	13.194827	0.276551	117.403826	117.403826	117.403826	1.004218	0.008401	2.830000	0.397079	0.214478	49.141332
149.249555	0.000922	0.384067	0.384068	57.204432	13.490991	0.274544	116.639792	116.639792	116.639792	0.998597	0.009205	2.830000	0.385483	0.209770	49.507642
151.399424	0.000975	0.391287	0.391288	57.725447	13.804818	0.272510	115.869116	115.869116	115.869116	0.992944	0.010096	2.830000	0.374003	0.205001	49.859535
153.580262	0.001033	0.398713	0.398714	58.248389	14.137766	0.270447	115.091787	115.091787	115.091787	0.987265	0.011086	2.830000	0.362652	0.200173	50.195262
155.792513	0.001095	0.406354	0.406356	58.773392	14.491445	0.268356	114.307791	114.307791	114.307791	0.981568	0.012188	2.830000	0.351442	0.195288	50.512877
158.036631	0.001163	0.414222	0.414224	59.300598	14.867646	0.266238	113.517112	113.517112	113.517112	0.975857	0.013415	2.830000	0.340387	0.190346	50.810212
160.313075	0.001236	0.422329	0.422330	59.830162	15.268363	0.264093	112.719726	112.719726	112.719726	0.970141	0.014784	2.830000	0.329501	0.185351	51.084838
162.622309	0.001315	0.430687	0.430689	60.362248	15.695817	0.261921	111.915604	111.915604	111.915604	0.964428	0.016313	2.830000	0.318798	0.180303	51.334031
164.964807	0.001400	0.439310	0.439312	60.897031	16.152495	0.259723	111.104713	111.104713	111.104713	0.958728	0.018023	2.830000	0.308291	0.175205	51.554727
167.341048	0.001494	0.448213	0.448216	61.434703	16.641181	0.257498	110.287009	110.287009	110.287009	0.953049	0.019938	2.830000	0.297994	0.170060	51.743464
169.751517	0.001595	0.457414	0.457417	61.975467	17.164999	0.255248	109.462441	109.462441	109.462441	0.947404	0.022085	2.830000	0.287922	0.164870	51.896318
172.196708	0.001706	0.466929	0.466932	62.519542	17.727468	0.252973	108.630944	108.630944	108.630944	0.941805	0.024497	2.830000	0.278088	0.159639	52.008829
174.677121	0.001827	0.476778	0.476782	63.067166	18.332551	0.250673	107.792445	107.792445	107.792445	0.936265	0.027209	2.830000	0.268506	0.154370	52.075906
177.193263	0.001960	0.486983	0.486987	63.618594	18.984725	0.248349	106.946853	106.946853	106.946853	0.930800	0.030262	2.830000	0.259191	0.149067	52.091715
179.745648	0.002106	0.497567	0.497572	64.174102	19.689054	0.246002	106.094061	106.094061	106.094061	0.925427	0.033704	2.830000	0.250155	0.143735	52.049546
182.334800	0.002267	0.508556	0.508561	64.733989	20.451268	0.243631	105.233943	105.233943	105.233943	0.920165	0.037590	2.830000	0.241413	0.138378	51.941648
184.961247	0.002444	0.519978	0.519984	65.298579	21.277858	0.241239	104.366350	104.366350	104.366350	0.915035	0.041981	2.830000	0.232978	0.133002	51.759037
187.625527	0.002640	0.531865	0.531872	65.868223	22.176167	0.238824	103.491108	103.491108	103.491108	0.910061	0.046949	2.830000	0.224864	0.127614	51.491250
190.328185	0.002857	0.544252	0.544259	66.443304	23.154496	0.236389	102.608009	102.608009	102.608009	0.905271	0.052577	2.830000	0.217083	0.122222	51.126056
193.069773	0.003098	0.557177	0.557186	67.024237	24.222183	0.233933	101.716814	101.716814	101.716814	0.900696	0.058958	2.830000	0.209650	0.116835	50.649107
195.850852	0.003368	0.570684	0.570694	67.611477	25.389679	0.231458	100.817240	100.817240	100.817240	0.896371	0.066202	2.830000	0.202577	0.111463	50.043509
198.671992	0.003669	0.584822	0.584834	68.205520	26.668546	0.228963	99.908956	99.908956	99.908956	0.892337	0.074432	2.830000	0.195876	0.106118	49.289313
201.533769	0.004008	0.599646	0.599659	68.806912	28.071369	0.226451	98.991575	98.991575	98.991575	0.888640	0.083793	2.830000	0.189559	0.100814	48.362924
204.436768	0.004389	0.615217	0.615233	69.416250	29.611467	0.223921	98.064644	98.064644	98.064644	0.885334	0.094450	2.830000	0.183640	0.095571	47.236410
207.381584	0.004819	0.631606	0.631624	70.034195	31.302295	0.221375	97.127630	97.127630	97.127630	0.882482	0.106592	2.830000	0.178128	0.090409	45.876758
210.368818	0.005308	0.648892	0.648914	70.661476	33.156298	0.218812	96.179909	96.179909	96.179909	0.880157	0.120441	2.830000	0.173037	0.085353	44.245134
213.399082	0.005865	0.667168	0.667194	71.298901	35.182939	0.216235	95.220745	95.220745	95.220745	0.878446	0.136252	2.830000	0.168377	0.080437	42.296282
216.472995	0.006503	0.686538	0.686569	71.947369	37.385424	0.213643	94.249272	94.249272	94.249272	0.877452	0.154326	2.830000	0.164158	0.075698	39.978351
219.591187	0.007236	0.707126	0.707163	72.607885	39.755572	0.211037	93.264461	93.264461	93.264461	0.877296	0.175013	2.830000	0.160392	0.071185	37.233631
222.754295	0.008083	0.729072	0.729117	73.281574	42.266306	0.208419	92.265095	92.265095	92.265095	0.878127	0.198728	2.830000	0.157090	0.066956	34.000999
225.962966	0.009068	0.752543	0.752598	73.969704	44.861634	0.205788	91.249718	91.249718	91.249718	0.880124	0.225969	2.830000	0.154261	0.063083	30.221241
229.217857	0.010221	0.777737	0.777804	74.673710	47.445314	0.203146	90.216585	90.216585	90.216585	0.883505	0.257336	2.830000	0.151916	0.059648	25.846607
232.519632	0.011577	0.804885	0.804968	75.395223	49.872093	0.200493	89.163595	89.163595	89.163595	0.888543	0.293562	2.830000	0.150067	0.056745	20.855532
235.868968	0.013184	0.834269	0.834373	76.136109	51.949090	0.197829	88.088195	88.088195	88.088195	0.895576	0.335555	2.830000	0.148724	0.054476	15.271514
239.266550	0.015105	0.866226	0.866358	76.898515	53.457054	0.195155	86.987264	86.987264	86.987264	0.905035	0.384458	2.830000	0.147900	0.052940	9.181300
242.713072	0.017419	0.901170	0.901338	77.684931	54.196036	0.192471	85.856954	85.856954	85.856954	0.917466	0.441727	2.830000	0.147607	0.052218	2.742957
246.209240	0.020235	0.939610	0.939827	78.498262	54.044239	0.189777	84.692476	84.692476	84.692476	0.933585	0.509248	2.830000	0.147861	0.052365	-3.826171
249.755769	0.023696	0.982183	0.982469	79.341931	53.001378	0.187073	83.487800	83.487800	83.487800	0.954329	0.589506	2.830000	0.148680	0.053395	-10.283750
253.353383	0.028002	1.029695	1.030075	80.220007	51.189349	0.184357	82.235241	82.235241	82.235241	0.980959	0.685829	2.830000	0.150085	0.055285	-16.407326
257.002820	0.033432	1.083180	1.083696	81.137376	48.809369	0.181629	80.924867	80.924867	80.924867	1.015193	0.802752	2.830000	0.152105	0.057981	-22.030458
260.704825	0.040384	1.143991	1.144703	82.099977	46.082175	0.178886	79.543627	79.543627	79.543627	1.059431	0.946580	2.830000	0.154775	0.061412	-27.057115
264.460155	0.049442	1.213922	1.214928	83.115123	43.200744	0.176123	78.074045	78.074045	78.074045	1.117101	1.126270	2.830000	0.158145	0.065508	-31.455012
268.269580	0.061487	1.295414	1.296873	84.191952	40.307861	0.173335	76.492209	76.492209	76.492209	1.193242	1.354850	2.830000	0.162286	0.070210	-35.237447
272.133877	0.077894	1.391864	1.394042	85.342082	37.494210	0.170513	74.764548	74.764548	74.764548	1.295497	1.651801	2.830000	0.167300	0.075478	-38.443191
276.053838	0.100896	1.508130	1.511502	86.580558	34.806945	0.167640	72.842493	72.842493	72.842493	1.435905	2.047174	2.830000	0.173340	0.081306	-41.119420
280.030263	0.134289	1.651385	1.656836	87.927293	32.260628	0.164692	70.653197	70.653197	70.653197	1.634282	2.589028	2.830000	0.180650	0.087723	-43.308209
284.063968	0.184919	1.832603	1.841909	89.409257	29.846296	0.161625	68.082555	68.082555	68.082555	1.925013	3.357459	2.830000	0.189631	0.094819	-45.033942
288.155776	0.266033	2.069243	2.086274	91.063870	27.537247	0.158359	64.942085	64.942085	64.942085	2.371668	4.492357	2.830000	0.200987	0.102770	-46.285849
292.306525	0.405665	2.390085	2.424267	92.944055	25.291985	0.154735	60.899373	60.899373	60.899373	3.101066	6.250686	2.830000	0.216029	0.111893	-46.982951
296.517063	0.670263	2.842931	2.920875	95.124334	23.058036	0.150417	55.318973	55.318973	55.318973	4.389510	9.126944	2.830000	0.237379	0.122734	-46.888023
300.788252	1.240555	3.494856	3.708503	97.698307	20.796058	0.144620	46.866974	46.866974	46.866974	6.891909	14.085503	2.830000	0.270533	0.136083	-45.374450
305.120965	2.666798	4.288013	5.049640	100.698172	18.630413	0.135564	32.526677	32.526677	32.526677	12.123757	22.752444	2.830000	0.325318	0.151902	-40.820635
309.516090	5.984052	3.605098	6.986102	103.563366	17.617546	0.122520	6.491521	6.491521	6.491521	21.045120	35.561087	2.830000	0.392438	0.160635	-30.314839
313.974523	6.576650	-1.388298	6.721585	104.139976	20.967520	0.121629	-30.342226	-30.342226	-30.342226	21.983706	43.167684	2.830000	0.360308	0.134971	-19.387239
318.497179	3.327124	-2.811498	4.355948	102.093656	26.645885	0.131644	-58.652754	-58.652754	-58.652754	12.798497	34.842751	2.830000	0.272301	0.106208	-25.047844
323.084981	1.710431	-2.244209	2.821711	99.685357	27.471986	0.135641	-74.386242	-74.386242	-74.386242	6.981684	22.588307	2.830000	0.236018	0.103014	-35.944764
327.738869	1.022822	-1.662447	1.951895	97.682791	25.832590	0.135849	-83.511284	-83.511284	-83.511284	4.251065	14.422597	2.830000	0.228328	0.109552	-42.568531
332.459793	0.687527	-1.236378	1.414682	96.089839	24.031955	0.134595	-89.449445	-89.449445	-89.449445	2.884573	9.684728	2.830000	0.231092	0.117760	-46.097929
337.248720	0.502162	-0.926285	1.053646	94.813486	22.490806	0.132748	-93.710867	-93.710867	-93.710867	2.129107	6.883155	2.830000	0.237983	0.125829	-48.063145
342.106630	0.389661	-0.692860	0.794916	93.776174	21.202882	0.130638	-97.004836	-97.004836	-97.004836	1.674497	5.139895	2.830000	0.246760	0.133472	-49.210844
347.034515	0.316562	-0.510557	0.600733	92.922698	20.111957	0.128405	-99.697663	-99.697663	-99.697663	1.382038	3.998303	2.830000	0.256543	0.140712	-49.891870
352.033384	0.266624	-0.363338	0.450669	92.214333	19.170890	0.126113	-101.995126	-101.995126	-101.995126	1.183821	3.216982	2.830000	0.266951	0.147620	-50.282743
357.104260	0.231239	-0.240905	0.333926	91.623514	18.345771	0.123796	-104.021154	-104.021154	-104.021154	1.043884	2.662351	2.830000	0.277802	0.154259	-50.479608
362.248179	0.205517	-0.136422	0.246674	91.130220	17.612597	0.121473	-105.854826	-105.854826	-105.854826	0.941911	2.256786	2.830000	0.289004	0.160680	-50.538780
367.466194	0.186520	-0.045189	0.191916	90.719640	16.954091	0.119154	-107.549169	-107.549169	-107.549169	0.865798	1.953105	2.830000	0.300505	0.166921	-50.495384
372.759372	0.172407	0.036135	0.176153	90.380644	16.357504	0.116845	-109.141339	-109.141339	-109.141339	0.808024	1.721472	2.830000	0.312274	0.173009	-50.372546
378.128796	0.161987	0.110001	0.195806	90.104787	15.813179	0.114551	-110.658472	-110.658472	-110.658472	0.763753	1.542378	2.830000	0.324290	0.178965	-50.186200
383.575563	0.154475	0.178263	0.235882	89.885631	15.313620	0.112275	-112.121211	-112.121211	-112.121211	0.729800	1.402701	2.830000	0.336538	0.184803	-49.947759
389.100789	0.149349	0.242372	0.284691	89.718283	14.852884	0.110017	-113.545935	-113.545935	-113.545935	0.704037	1.293419	2.830000	0.349005	0.190535	-49.665656
394.705603	0.146268	0.303495	0.336903	89.599073	14.426163	0.107781	-114.946238	-114.946238	-114.946238	0.685044	1.208226	2.830000	0.361682	0.196171	-49.346285
400.391152	0.145026	0.362613	0.390539	89.525334	14.029505	0.105565	-116.333960	-116.333960	-116.333960	0.671899	1.142684	2.830000	0.374559	0.201718	-48.994586
406.158599	0.145518	0.420577	0.445040	89.495243	13.659609	0.103372	-117.719953	-117.719953	-117.719953	0.664044	1.093681	2.830000	0.387630	0.207180	-48.614421
412.009123	0.147731	0.478157	0.500458	89.507722	13.313688	0.101200	-119.114697	-119.114697	-119.114697	0.661217	1.059092	2.830000	0.400886	0.212563	-48.208822
417.943921	0.151733	0.536085	0.557144	89.562370	12.989358	0.099051	-120.528844	-120.528844	-120.528844	0.663408	1.037562	2.830000	0.414324	0.217871	-47.780152
423.964207	0.157682	0.595085	0.615621	89.659433	12.684561	0.096923	-121.973749	-121.973749	-121.973749	0.670849	1.028385	2.830000	0.427938	0.223106	-47.330204
430.071212	0.165839	0.655906	0.676546	89.799796	12.397507	0.094817	-123.462038	-123.462038	-123.462038	0.684033	1.031444	2.830000	0.441728	0.228272	-46.860263
436.266186	0.176591	0.719355	0.740713	89.985005	12.126625	0.092731	-125.008289	-125.008289	-125.008289	0.703747	1.047217	2.830000	0.455693	0.233371	-46.371122
442.550395	0.190490	0.786331	0.809076	90.217313	11.870536	0.090665	-126.629875	-126.629875	-126.629875	0.731155	1.076840	2.830000	0.469836	0.238405	-45.863066
448.925126	0.208321	0.857868	0.882800	90.499754	11.628022	0.088616	-128.348099	-128.348099	-128.348099	0.767912	1.122247	2.830000	0.484163	0.243378	-45.335819
455.391681	0.231192	0.935179	0.963332	90.836245	11.398015	0.086582	-130.189741	-130.189741	-130.189741	0.816354	1.186408	2.830000	0.498685	0.248289	-44.788436
461.951385	0.260693	1.019708	1.052504	91.231718	11.179591	0.084560	-132.189277	-132.189277	-132.189277	0.879786	1.273711	2.830000	0.513418	0.253140	-44.219134
468.605578	0.299136	1.113190	1.152682	91.692275	10.971989	0.082546	-134.392115	-134.392115	-134.392115	0.962937	1.390585	2.830000	0.528383	0.257930	-43.625029
475.355621	0.349954	1.217683	1.266972	92.225355	10.774643	0.080534	-136.859457	-136.859457	-136.859457	1.072681	1.546467	2.830000	0.543607	0.262654	-43.001732
482.202895	0.418362	1.335531	1.399525	92.839859	10.587281	0.078515	-139.675749	-139.675749	-139.675749	1.219192	1.755381	2.830000	0.559124	0.267302	-42.342770
489.148802	0.512474	1.469114	1.555932	93.546097	10.410106	0.076479	-142.960362	-142.960362	-142.960362	1.417813	2.038463	2.830000	0.574965	0.271851	-41.638754
496.194760	0.645191	1.619974	1.743728	94.355212	10.244183	0.074410	-146.886104	-146.886104	-146.886104	1.692023	2.427988	2.830000	0.591137	0.276254	-40.876348
503.342213	0.837293	1.786261	1.972761	95.277232	10.092214	0.072290	-151.708451	-151.708451	-151.708451	2.077830	2.973389	2.830000	0.607578	0.280414	-40.037481
510.592621	1.121738	1.955730	2.254590	96.315638	9.960099	0.070099	-157.809465	-157.809465	-157.809465	2.628702	3.748419	2.830000	0.624011	0.284134	-39.100799
517.947468	1.545822	2.087841	2.597816	97.453571	9.859784	0.067836	-165.752186	-165.752186	-165.752186	3.414023	4.851418	2.830000	0.639626	0.287025	-38.052535
525.408258	2.152612	2.075902	2.990503	98.622407	9.812820	0.065575	-176.297564	-176.297564	-176.297564	4.481916	6.363464	2.830000	0.652439	0.288398	-36.927687
532.976517	2.884895	1.713723	3.355513	99.646739	9.846378	0.063581	169.807021	-190.192979	169.807021	5.713781	8.167018	2.830000	0.658752	0.287415	-35.914904
540.653794	3.406329	0.846792	3.510004	100.214485	9.955087	0.062344	152.633977	-207.366023	152.633977	6.585077	9.587265	2.830000	0.655400	0.284277	-35.445851
548.441658	3.289942	-0.209405	3.296600	100.032968	10.041364	0.062028	134.131912	-225.868088	134.131912	6.415397	9.560669	2.830000	0.646655	0.281834	-35.829721
556.341702	2.669801	-0.895133	2.815866	99.131232	9.996712	0.061989	117.314848	-242.685152	117.314848	5.320107	8.023019	2.830000	0.642935	0.283093	-36.629365
564.355543	1.998426	-1.119096	2.290433	97.826596	9.842081	0.061593	103.846924	-256.153076	103.846924	4.040846	6.055674	2.830000	0.648224	0.287541	-37.193570
572.484820	1.481848	-1.085866	1.837112	96.417684	9.652252	0.060762	93.608571	-266.391429	93.608571	3.011682	4.423847	2.830000	0.659598	0.293196	-37.350311
580.731195	1.123872	-0.955453	1.475120	95.063854	9.468572	0.059647	85.816485	-274.183515	85.816485	2.285057	3.261797	2.830000	0.673679	0.298883	-37.206486
589.096355	0.880364	-0.801320	1.190443	93.826322	9.302595	0.058384	79.730400	-280.269600	79.730400	1.789915	2.468369	2.830000	0.688606	0.304216	-36.885417
597.582011	0.712833	-0.650715	0.965175	92.720551	9.154456	0.057054	74.811788	-285.188212	74.811788	1.452307	1.925731	2.830000	0.703570	0.309139	-36.466382
606.189899	0.595353	-0.511845	0.785131	91.744530	9.021479	0.055701	70.694847	-289.305153	70.694847	1.219475	1.548250	2.830000	0.718269	0.313696	-35.993799
614.921780	0.511491	-0.385815	0.640684	90.890933	8.900874	0.054349	67.132363	-292.867637	67.132363	1.057131	1.280243	2.830000	0.732606	0.317946	-35.491851
623.779440	0.450893	-0.271318	0.526230	90.151866	8.790358	0.053010	63.953932	-296.046068	63.953932	0.943415	1.086372	2.830000	0.746569	0.321944	-34.973793
632.764690	0.406973	-0.166395	0.439675	89.520545	8.688182	0.051689	61.038438	-298.961562	61.038438	0.864309	0.944095	2.830000	0.760175	0.325730	-34.447007
641.879368	0.375484	-0.069060	0.381782	88.991771	8.593024	0.050391	58.296579	-301.703421	58.296579	0.810708	0.838826	2.830000	0.773449	0.329337	-33.915656
651.125339	0.353685	0.022508	0.354401	88.561949	8.503884	0.049116	55.659721	-304.340279	55.659721	0.776642	0.760989	2.830000	0.786416	0.332789	-33.382085
660.504493	0.339837	0.109933	0.357176	88.228966	8.419996	0.047866	53.072573	-306.927427	53.072573	0.758212	0.704241	2.830000	0.799099	0.336105	-32.847570
670.018750	0.332913	0.194669	0.385652	87.992024	8.340766	0.046639	50.488132	-309.511868	50.488132	0.752957	0.664404	2.830000	0.811516	0.339297	-32.312734
679.670056	0.332436	0.278044	0.433385	87.851503	8.265731	0.045437	47.863909	-312.136091	47.863909	0.759503	0.638818	2.830000	0.823683	0.342377	-31.777763
689.460384	0.338407	0.361307	0.495038	87.808839	8.194530	0.044258	45.158779	-314.841221	45.158779	0.777386	0.625970	2.830000	0.835612	0.345352	-31.242528
699.391737	0.351304	0.445657	0.567473	87.866437	8.126888	0.043101	42.329949	-317.670051	42.329949	0.807020	0.625293	2.830000	0.847310	0.348227	-30.706646
709.466146	0.372149	0.532269	0.649465	88.027605	8.062607	0.041965	39.329614	-320.670386	39.329614	0.849782	0.637109	2.830000	0.858784	0.351003	-30.169490
719.685673	0.402656	0.622278	0.741189	88.296482	8.001572	0.040849	36.100792	-323.899208	36.100792	0.908243	0.662696	2.830000	0.870031	0.353681	-29.630195
730.052407	0.445491	0.716702	0.843874	88.677918	7.943759	0.039752	32.571749	-327.428251	32.571749	0.986551	0.704486	2.830000	0.881043	0.356255	-29.087642
740.568469	0.504683	0.816223	0.959648	89.177209	7.889273	0.038671	28.648140	-331.351860	28.648140	1.091055	0.766423	2.830000	0.891800	0.358715	-28.540470
751.236010	0.586248	0.920660	1.091468	89.799451	7.838399	0.037606	24.201736	-335.798264	24.201736	1.231189	0.854513	2.830000	0.902261	0.361043	-27.987187
762.057212	0.699036	1.027778	1.242972	90.548066	7.791702	0.036554	19.054361	-340.945639	19.054361	1.420624	0.977531	2.830000	0.912345	0.363207	-27.426535
773.034288	0.855555	1.130696	1.417903	91.421484	7.750167	0.035516	12.956357	-347.043643	12.956357	1.678192	1.147589	2.830000	0.921907	0.365153	-26.858557
784.169484	1.071574	1.212625	1.618249	92.406084	7.715369	0.034496	5.563058	-354.436942	5.563058	2.026681	1.379261	2.830000	0.930695	0.366800	-26.287274
795.465078	1.360401	1.237824	1.839266	93.462169	7.689441	0.033509	-3.571874	-363.571874	-3.571874	2.483441	1.683301	2.830000	0.938302	0.368037	-25.726632
806.923378	1.712247	1.143352	2.058894	94.500689	7.674115	0.032588	-14.925821	-374.925821	-14.925821	3.029454	2.046037	2.830000	0.944220	0.368772	-25.210372
818.546731	2.052489	0.857670	2.224479	95.360806	7.667437	0.031786	-28.736574	-388.736574	-28.736574	3.549033	2.388809	2.830000	0.948234	0.369093	-24.796201
830.337512	2.227913	0.386787	2.261239	95.833704	7.659257	0.031142	-44.489689	-404.489689	-44.489689	3.808136	2.552335	2.830000	0.951263	0.369488	-24.531380
842.298134	2.128333	-0.110067	2.131177	95.782381	7.635104	0.030610	-60.656867	-420.656867	-60.656867	3.627470	2.414281	2.830000	0.955441	0.370656	-24.377186
854.431043	1.826058	-0.448516	1.880334	95.261579	7.590966	0.030076	-75.437736	-435.437736	-75.437736	3.106382	2.045631	2.830000	0.962215	0.372812	-24.216408
866.738721	1.479070	-0.587518	1.591485	94.464988	7.535751	0.029473	-87.845664	-447.845664	-87.845664	2.500073	1.625169	2.830000	0.971137	0.375543	-23.969115
879.223685	1.182128	-0.588682	1.320595	93.581326	7.479251	0.028801	-97.854239	-457.854239	-97.854239	1.974596	1.266637	2.830000	0.981013	0.378380	-23.632354
891.888489	0.956952	-0.519019	1.088641	92.728702	7.426242	0.028090	-105.892354	-465.892354	-105.892354	1.572572	0.996508	2.830000	0.990992	0.381081	-23.234767
904.735724	0.794283	-0.419631	0.898318	91.964432	7.377891	0.027364	-112.449877	-472.449877	-112.449877	1.279869	0.802512	2.830000	1.000687	0.383578	-22.802810
917.768017	0.679135	-0.310747	0.746852	91.310902	7.333917	0.026638	-117.934635	-477.934635	-117.934635	1.070597	0.665261	2.830000	1.009975	0.385878	-22.353428
930.988035	0.598930	-0.201065	0.631779	90.773879	7.293684	0.025920	-122.656010	-482.656010	-122.656010	0.922556	0.568583	2.830000	1.018847	0.388007	-21.896157
944.398480	0.544753	-0.093689	0.552751	90.352353	7.256587	0.025215	-126.845699	-486.845699	-126.845699	0.819912	0.500999	2.830000	1.027328	0.389990	-21.436058
958.002097	0.510785	0.010831	0.510899	90.043310	7.222142	0.024524	-130.682354	-490.682354	-130.682354	0.752308	0.454868	2.830000	1.035450	0.391851	-20.975703
971.801667	0.493556	0.113050	0.506338	89.843910	7.189991	0.023848	-134.312068	-494.312068	-134.312068	0.713535	0.425318	2.830000	1.043244	0.393603	-20.516292
985.800014	0.491423	0.213942	0.535974	89.752434	7.159888	0.023188	-137.864528	-497.864528	-137.864528	0.700560	0.409463	2.830000	1.050731	0.395258	-20.058275
1000.000000	0.504300	0.314519	0.594340	89.768577	7.131677	0.022543	-141.466573	-501.466573	-141.466573	0.712997	0.405909	2.830000	1.057923	0.396821	-19.601683
1014.404530	0.533633	0.415529	0.676334	89.893329	7.105292	0.021912	-145.255085	-505.255085	-145.255085	0.752972	0.414517	2.830000	1.064823	0.398295	-19.146339
1029.016551	0.582599	0.516999	0.778916	90.128358	7.080761	0.021296	-149.391074	-509.391074	-149.391074	0.825342	0.436339	2.830000	1.071420	0.399675	-18.692044
1043.839051	0.656462	0.617386	0.901170	90.474540	7.058219	0.020693	-154.076585	-514.076585	-154.076585	0.938136	0.473680	2.830000	1.077685	0.400951	-18.238839
1058.875063	0.762873	0.711838	1.043402	90.928799	7.037938	0.020104	-159.575037	-519.575037	-159.575037	1.102833	0.530100	2.830000	1.083562	0.402106	-17.787528
1074.127661	0.911275	0.788897	1.205314	91.477639	7.020338	0.019531	-166.231474	-526.231474	-166.231474	1.333196	0.609883	2.830000	1.088963	0.403114	-17.340734
1089.599965	1.108929	0.825224	1.382287	92.084854	7.005901	0.018979	-174.475834	-534.475834	-174.475834	1.638954	0.715625	2.830000	1.093768	0.403945	-16.904857
1105.295141	1.348352	0.781370	1.558394	92.671958	6.994764	0.018457	175.240954	-544.759046	175.240954	2.006862	0.841288	2.830000	1.097876	0.404588	-16.492557
1121.216399	1.583456	0.612974	1.697960	93.099974	6.985731	0.017977	162.674079	-557.325921	162.674079	2.365555	0.959676	2.830000	1.101379	0.405112	-16.121897
1137.366994	1.720236	0.319024	1.749568	93.188101	6.975309	0.017548	148.206426	-571.793574	148.206426	2.571799	1.018381	2.830000	1.104781	0.405717	-15.803140
1153.750232	1.680653	-0.009530	1.680680	92.809468	6.959353	0.017155	133.094057	-586.905943	133.094057	2.505115	0.975408	2.830000	1.108865	0.406647	-15.517118
1170.369462	1.492501	-0.249397	1.513195	91.997683	6.937215	0.016764	118.920570	-601.079430	118.920570	2.207276	0.849085	2.830000	1.113977	0.407945	-15.222386
1187.228084	1.254500	-0.354262	1.303561	90.921152	6.912042	0.016358	106.657015	-613.342985	106.657015	1.835195	0.697967	2.830000	1.119765	0.409430	-14.892873
1204.329547	1.040347	-0.353468	1.098755	89.763413	6.887098	0.015936	96.405277	-623.594723	96.405277	1.509036	0.564829	2.830000	1.125694	0.410913	-14.529534
1221.677349	0.875140	-0.291965	0.922558	88.653192	6.863943	0.015508	87.776080	-632.223920	87.776080	1.270037	0.462998	2.830000	1.131434	0.412299	-14.144212
1239.275037	0.757858	-0.201254	0.784125	87.663732	6.842908	0.015081	80.261219	-639.738781	80.261219	1.115727	0.390335	2.830000	1.136866	0.413567	-13.747421
1257.126212	0.680329	-0.098284	0.687392	86.833987	6.823836	0.014659	73.396349	-646.603651	73.396349	1.031282	0.340807	2.830000	1.141971	0.414723	-13.345710
1275.234525	0.635007	0.008992	0.635071	86.186138	6.806479	0.014246	66.794538	-653.205462	66.794538	1.002481	0.309025	2.830000	1.146765	0.415780	-12.942612
1293.603680	0.617041	0.117154	0.628064	85.735616	6.790625	0.013842	60.133206	-659.866794	60.133206	1.019068	0.291280	2.830000	1.151271	0.416751	-12.539889
1312.237433	0.624510	0.224582	0.663664	85.495615	6.776141	0.013448	53.129986	-666.870014	53.129986	1.075058	0.285480	2.830000	1.155501	0.417642	-12.138411
1331.139597	0.658307	0.329634	0.736224	85.477805	6.762978	0.013064	45.517070	-674.482930	45.517070	1.168541	0.290905	2.830000	1.159459	0.418455	-11.738720
1350.314038	0.721983	0.428847	0.839743	85.689623	6.751168	0.012690	37.014728	-682.985272	37.014728	1.301537	0.307953	2.830000	1.163133	0.419187	-11.341500
1369.764677	0.821104	0.514376	0.968914	86.127393	6.740816	0.012326	27.305438	-692.694562	27.305438	1.479177	0.337745	2.830000	1.166496	0.419830	-10.948162
1389.495494	0.960518	0.570184	1.117007	86.763595	6.732048	0.011975	16.021038	-703.978962	16.021038	1.705707	0.381025	2.830000	1.169513	0.420377	-10.561694
1409.510524	1.136029	0.568603	1.270382	87.527418	6.724832	0.011639	2.784446	-717.215554	2.784446	1.972058	0.435245	2.830000	1.172168	0.420828	-10.187613
1429.813862	1.317826	0.476131	1.401201	88.285704	6.718583	0.011324	-12.608971	-732.608971	-12.608971	2.231296	0.489179	2.830000	1.174539	0.421220	-9.833404
1450.409659	1.439859	0.284368	1.467672	88.854074	6.711790	0.011031	-29.821428	-749.821428	-29.821428	2.383464	0.520064	2.830000	1.176884	0.421646	-9.502928
1471.302129	1.436500	0.050106	1.437374	89.078839	6.702681	0.010754	-47.692659	-767.692659	-47.692659	2.331428	0.506729	2.830000	1.179552	0.422219	-9.187271
1492.495545	1.312706	-0.132047	1.319331	88.946542	6.690957	0.010484	-64.639661	-784.639661	-64.639661	2.087679	0.452977	2.830000	1.182667	0.422959	-8.867347
1513.994242	1.138045	-0.212990	1.157804	88.584876	6.678037	0.010210	-79.557550	-799.557550	-79.557550	1.765175	0.384132	2.830000	1.186021	0.423777	-8.530660
1535.802619	0.975540	-0.206027	0.997058	88.156243	6.665458	0.009933	-92.201834	-812.201834	-92.201834	1.465680	0.321876	2.830000	1.189335	0.424577	-8.177610
1557.925134	0.852065	-0.144852	0.864290	87.779390	6.653975	0.009656	-102.895252	-822.895252	-102.895252	1.232480	0.274554	2.830000	1.192450	0.425310	-7.814158
1580.366314	0.771359	-0.056086	0.773395	87.519544	6.643750	0.009383	-112.153121	-832.153121	-112.153121	1.071414	0.242385	2.830000	1.195314	0.425964	-7.445657
1603.130749	0.729831	0.044501	0.731186	87.405989	6.634720	0.009115	-120.500968	-840.500968	-120.500968	0.976531	0.223194	2.830000	1.197927	0.426544	-7.075470
1626.223094	0.724106	0.147870	0.739050	87.447913	6.626786	0.008853	-128.435387	-848.435387	-128.435387	0.942241	0.214972	2.830000	1.200298	0.427055	-6.705513
1649.648074	0.753301	0.247160	0.792811	87.641749	6.619889	0.008598	-136.443611	-856.443611	-136.443611	0.966845	0.216536	2.830000	1.202432	0.427500	-6.337058
1673.410480	0.818738	0.333681	0.884124	87.970263	6.614012	0.008351	-145.035232	-865.035232	-145.035232	1.051892	0.227378	2.830000	1.204329	0.427879	-5.971415
1697.515172	0.921134	0.393037	1.001482	88.393681	6.609139	0.008112	-154.754788	-874.754788	-154.754788	1.197591	0.246889	2.830000	1.205986	0.428195	-5.610563
1721.967081	1.053149	0.402885	1.127582	88.833845	6.605146	0.007882	-166.126745	-886.126745	-166.126745	1.391255	0.272581	2.830000	1.207423	0.428454	-5.257535
1746.771208	1.186849	0.339650	1.234493	89.161111	6.601596	0.007664	-179.457129	-899.457129	-179.457129	1.588697	0.297374	2.830000	1.208714	0.428684	-4.915655
1771.932627	1.269946	0.203730	1.286184	89.214266	6.597658	0.007458	165.511149	-914.488851	165.511149	1.710132	0.309208	2.830000	1.210015	0.428940	-4.585209
1797.456484	1.258518	0.043928	1.259285	88.882040	6.592591	0.007260	149.769716	-930.230284	149.769716	1.691693	0.298888	2.830000	1.211477	0.429270	-4.259898
1823.348001	1.163620	-0.071009	1.165785	88.189544	6.586490	0.007066	134.575313	-945.424687	134.575313	1.555906	0.270208	2.830000	1.213099	0.429667	-3.930219
1849.612473	1.038435	-0.109633	1.044206	87.278664	6.580151	0.006873	120.664877	-959.335123	120.664877	1.388935	0.235999	2.830000	1.214740	0.430081	-3.591383
1876.255272	0.928570	-0.083791	0.932343	86.309928	6.574291	0.006680	108.002143	-971.997857	108.002143	1.262078	0.206461	2.830000	1.216262	0.430465	-3.244627
1903.281848	0.854319	-0.018977	0.854530	85.399602	6.569231	0.006490	96.061841	-983.938159	96.061841	1.204876	0.185548	2.830000	1.217599	0.430796	-2.893271
1930.697729	0.820194	0.063441	0.822643	84.615041	6.565033	0.006303	84.149410	-995.850590	84.149410	1.220846	0.173552	2.830000	1.218734	0.431072	-2.540146
1958.508523	0.825423	0.147862	0.838562	83.992091	6.561665	0.006122	71.562670	-1008.437330	71.562670	1.303713	0.169625	2.830000	1.219670	0.431293	-2.187229
1986.719919	0.867893	0.220465	0.895457	83.550448	6.559069	0.005945	57.655705	-1022.344295	57.655705	1.442777	0.172714	2.830000	1.220415	0.431464	-1.836092
2015.337686	0.942354	0.265426	0.979021	83.299540	6.557155	0.005775	41.899199	-1038.100801	41.899199	1.619671	0.181301	2.830000	1.220987	0.431590	-1.488341
2044.367679	1.034141	0.265355	1.067643	83.232655	6.555730	0.005611	24.010425	-1055.989575	24.010425	1.799802	0.192399	2.830000	1.221420	0.431683	-1.145618
2073.815835	1.113558	0.211353	1.133438	83.313879	6.554445	0.005454	4.176480	-1075.823520	4.176480	1.927633	0.200795	2.830000	1.221782	0.431768	-0.808639
2103.688178	1.145150	0.120120	1.151433	83.479812	6.552899	0.005303	-16.769721	-1096.769721	-16.769721	1.946696	0.200825	2.830000	1.222150	0.431870	-0.475594
2133.990819	1.115877	0.033522	1.116380	83.675726	6.550952	0.005157	-37.547584	-1117.547584	-37.547584	1.845448	0.190945	2.830000	1.222551	0.431998	-0.142289
2164.729954	1.048158	-0.012354	1.048231	83.892189	6.548861	0.005013	-57.044755	-1137.044755	-57.044755	1.672704	0.175359	2.830000	1.222938	0.432136	0.194793
2195.911873	0.977355	-0.010416	0.977410	84.155355	6.547017	0.004871	-74.803318	-1154.803318	-74.803318	1.495696	0.159918	2.830000	1.223236	0.432258	0.536283
2227.542952	0.927793	0.025375	0.928140	84.491898	6.545673	0.004732	-91.007861	-1171.007861	-91.007861	1.359783	0.148274	2.830000	1.223397	0.432347	0.880805
2259.629662	0.908941	0.075763	0.912093	84.906518	6.544916	0.004596	-106.210745	-1186.210745	-106.210745	1.282873	0.141534	2.830000	1.223402	0.432397	1.226565
2292.178566	0.920316	0.123200	0.928526	85.374342	6.544722	0.004463	-121.080762	-1201.080762	-121.080762	1.264123	0.139265	2.830000	1.223258	0.432410	1.572051
2325.196322	0.954359	0.153236	0.966582	85.839111	6.545003	0.004335	-136.224011	-1216.224011	-136.224011	1.289302	0.140100	2.830000	1.222982	0.432391	1.916151
2358.689683	0.996811	0.156866	1.009078	86.218311	6.545617	0.004211	-152.029812	-1232.029812	-152.029812	1.332798	0.141929	2.830000	1.222601	0.432350	2.258300
2392.665500	1.029731	0.135537	1.038612	86.424021	6.546405	0.004091	-168.553150	-1248.553150	-168.553150	1.364966	0.142388	2.830000	1.222146	0.432298	2.598790
2427.130723	1.040683	0.102935	1.045761	86.398225	6.547267	0.003975	174.455730	-1265.544270	174.455730	1.369173	0.140027	2.830000	1.221635	0.432241	2.938799
2462.092401	1.031212	0.076562	1.034051	86.136544	6.548229	0.003862	157.307900	-1282.692100	157.307900	1.354573	0.135235	2.830000	1.221060	0.432178	3.279677
2497.557686	1.013776	0.065360	1.015881	85.673725	6.549401	0.003752	140.081829	-1299.918171	140.081829	1.347365	0.129656	2.830000	1.220402	0.432101	3.622054
2533.533832	1.000552	0.066193	1.002739	85.043168	6.550882	0.003644	122.524810	-1317.475190	122.524810	1.369737	0.124749	2.830000	1.219641	0.432003	3.965688
2570.028197	0.995595	0.069778	0.998038	84.246366	6.552699	0.003539	104.189329	-1335.810671	104.189329	1.426396	0.120929	2.830000	1.218773	0.431883	4.309961
2607.048246	0.994259	0.068997	0.996650	83.254407	6.554816	0.003438	84.674940	-1355.325060	84.674940	1.503414	0.117626	2.830000	1.217805	0.431744	4.654466
2644.601552	0.988566	0.064749	0.990684	82.049130	6.557175	0.003339	63.835205	-1376.164795	63.835205	1.576820	0.113974	2.830000	1.216748	0.431588	4.999334
2682.695795	0.975754	0.065448	0.977946	80.705486	6.559764	0.003242	41.830834	-1398.169166	41.830834	1.627490	0.109717	2.830000	1.215604	0.431418	5.345123
2721.338768	0.963049	0.078941	0.966279	79.496828	6.562639	0.003149	18.995626	-1421.004374	18.995626	1.651374	0.105613	2.830000	1.214360	0.431229	5.692280
2760.538375	0.963363	0.103709	0.968929	78.907903	6.565880	0.003057	-4.362498	-1444.362498	-4.362498	1.657109	0.102885	2.830000	1.213003	0.431016	6.040669
2800.302634	0.985853	0.126650	0.993955	79.292754	6.569536	0.002968	-28.089848	-1468.089848	-28.089848	1.658159	0.102284	2.830000	1.211524	0.430776	6.389554
2840.639679	1.026679	0.127676	1.034588	80.438986	6.573566	0.002882	-52.195234	-1492.195234	-52.195234	1.661876	0.103312	2.830000	1.209934	0.430512	6.737960
2881.557759	1.062606	0.092576	1.066631	81.796749	6.577824	0.002799	-76.638736	-1516.638736	-76.638736	1.651423	0.103820	2.830000	1.208263	0.430233	7.085397
2923.065245	1.060334	0.034265	1.060887	82.922067	6.582134	0.002719	-100.919634	-1540.919634	-100.919634	1.586580	0.101013	2.830000	1.206539	0.429952	7.432812
2965.170628	1.010995	-0.005279	1.011009	83.633450	6.586488	0.002641	-124.031025	-1564.031025	-124.031025	1.454466	0.094389	2.830000	1.204760	0.429668	7.782359
3007.882518	0.946795	0.005778	0.946813	83.993919	6.591095	0.002564	-145.219823	-1585.219823	-145.219823	1.305360	0.086823	2.830000	1.202881	0.429367	8.135336
3051.209653	0.910111	0.061674	0.912199	84.171455	6.596178	0.002488	-164.726406	-1604.726406	-164.726406	1.209763	0.081719	2.830000	1.200864	0.429036	8.491145
3095.160895	0.925881	0.131359	0.935152	84.286529	6.601838	0.002415	176.256928	-1623.743072	176.256928	1.212209	0.080792	2.830000	1.198695	0.428668	8.848195
3139.745234	0.995590	0.171977	1.010334	84.323672	6.608040	0.002344	156.058431	-1643.941569	156.058431	1.320121	0.083836	2.830000	1.196387	0.428266	9.204679
3184.971790	1.083521	0.139782	1.092500	84.083491	6.614574	0.002275	133.244209	-1666.755791	133.244209	1.482262	0.088005	2.830000	1.193984	0.427843	9.559153
3230.849813	1.111237	0.038668	1.111910	83.238888	6.621085	0.002210	107.801214	-1692.198786	107.801214	1.576704	0.087772	2.830000	1.191548	0.427422	9.912442
3277.388687	1.040527	-0.042068	1.041377	81.627148	6.627484	0.002146	81.564342	-1718.435658	81.564342	1.537580	0.080842	2.830000	1.189082	0.427010	10.268396
3324.597932	0.939165	-0.031649	0.939698	79.472630	6.634143	0.002083	56.115510	-1743.884490	56.115510	1.463354	0.072157	2.830000	1.186510	0.426581	10.629254
3372.487204	0.886505	0.049417	0.887881	77.247930	6.641393	0.002021	31.019426	-1768.980574	31.019426	1.464901	0.066957	2.830000	1.183776	0.426115	10.993607
3421.066299	0.914150	0.143545	0.925352	75.782974	6.649315	0.001960	4.661843	-1795.338157	4.661843	1.563322	0.066952	2.830000	1.180877	0.425608	11.359093
3470.345152	1.014071	0.184649	1.030745	76.304818	6.657811	0.001902	-24.413629	-1824.413629	-24.413629	1.717004	0.071260	2.830000	1.177839	0.425065	11.723544
3520.333844	1.115400	0.115996	1.121415	78.416216	6.666560	0.001846	-56.404531	-1856.404531	-56.404531	1.814446	0.075429	2.830000	1.174727	0.424507	12.085708
3571.042600	1.102672	-0.012967	1.102748	80.337574	6.675178	0.001793	-88.875481	-1888.875481	-88.875481	1.703108	0.072897	2.830000	1.171598	0.423959	12.448113
3622.481792	0.989560	-0.059977	0.991376	81.436875	6.683844	0.001740	-117.992422	-1917.992422	-117.992422	1.434291	0.064867	2.830000	1.168400	0.423409	12.815213
3674.661941	0.899428	0.003381	0.899434	82.056983	6.693041	0.001688	-142.700449	-1942.700449	-142.700449	1.219225	0.058404	2.830000	1.165048	0.422827	13.186965
3727.593720	0.898095	0.107793	0.904541	82.565380	6.702942	0.001637	-165.153330	-1965.153330	-165.153330	1.167354	0.056859	2.830000	1.161524	0.422203	13.560737
3781.287957	0.986494	0.171614	1.001310	83.006122	6.713474	0.001588	171.406242	-1988.593758	171.406242	1.280677	0.059905	2.830000	1.157854	0.421540	13.934192
3835.755635	1.095839	0.122529	1.102668	83.043816	6.724356	0.001541	144.537105	-2015.462895	144.537105	1.452518	0.063820	2.830000	1.154095	0.420858	14.305928
3891.007893	1.096243	-0.002058	1.096245	82.173584	6.735219	0.001495	114.980940	-2045.019060	114.980940	1.486108	0.062320	2.830000	1.150301	0.420179	14.677951
3947.056035	0.990752	-0.048599	0.991944	80.352379	6.746211	0.001451	85.885952	-2074.114048	85.885952	1.395027	0.055908	2.830000	1.146427	0.419495	15.054295
4003.911523	0.911534	0.014658	0.911652	77.983676	6.757766	0.001407	57.711437	-2102.288563	57.711437	1.383119	0.050946	2.830000	1.142397	0.418777	15.434814
4061.585988	0.924675	0.108012	0.930962	75.384291	6.770014	0.001364	27.760794	-2132.239206	27.760794	1.523986	0.050254	2.830000	1.138204	0.418020	15.817022
4120.091227	1.014197	0.142310	1.024133	73.585666	6.782838	0.001323	-6.554624	-2166.554624	-6.554624	1.730646	0.052830	2.830000	1.133882	0.417229	16.198943
4179.439206	1.084334	0.071634	1.086698	74.983361	6.795946	0.001284	-44.736515	-2204.736515	-44.736515	1.803343	0.054466	2.830000	1.129482	0.416425	16.580267
4239.642065	1.043762	-0.014693	1.043865	77.600694	6.809180	0.001245	-82.282163	-2242.282163	-82.282163	1.628194	0.051535	2.830000	1.125016	0.415615	16.963642
4300.712118	0.960785	-0.008866	0.960825	79.447398	6.822814	0.001208	-115.261258	-2275.261258	-115.261258	1.381777	0.047038	2.830000	1.120427	0.414785	17.350946
4362.661857	0.935948	0.058826	0.937795	80.703495	6.837085	0.001171	-144.390190	-2304.390190	-144.390190	1.258079	0.044939	2.830000	1.115685	0.413919	17.740834
4425.503952	0.983380	0.105554	0.989029	81.566640	6.851965	0.001135	-172.909293	-2332.909293	-172.909293	1.282240	0.045592	2.830000	1.110808	0.413020	18.131527
4489.251258	1.041614	0.079812	1.044667	81.831515	6.867276	0.001101	156.795749	-2363.204251	156.795749	1.353774	0.046583	2.830000	1.105829	0.412099	18.522465
4553.916814	1.036702	0.022256	1.036941	81.193601	6.882894	0.001067	125.001588	-2394.998412	125.001588	1.367065	0.045300	2.830000	1.100762	0.411164	18.914930
4619.513847	0.990482	0.010340	0.990536	79.636647	6.898938	0.001035	92.753328	-2427.246672	92.753328	1.373413	0.042643	2.830000	1.095580	0.410208	19.310211
4686.055775	0.968519	0.040745	0.969375	77.194651	6.915555	0.001003	58.906315	-2461.093685	58.906315	1.469473	0.040885	2.830000	1.090263	0.409222	19.707817
4753.556208	0.983730	0.066156	0.985952	73.651336	6.932747	0.000972	21.277961	-2498.722039	21.277961	1.627835	0.040382	2.830000	1.084820	0.408208	20.106840
4822.028953	1.007316	0.064564	1.009382	70.822670	6.950446	0.000942	-20.207389	-2540.207389	-20.207389	1.714653	0.040143	2.830000	1.079264	0.407168	20.507104
4891.488015	1.017591	0.048147	1.018729	73.737153	6.968630	0.000913	-62.590009	-2582.590009	-62.590009	1.653861	0.039489	2.830000	1.073597	0.406106	20.908954
4961.947603	1.012990	0.029915	1.013432	77.224402	6.987318	0.000885	-102.866314	-2622.866314	-102.866314	1.518011	0.038406	2.830000	1.067818	0.405019	21.312608
5033.422128	0.992205	0.021248	0.992432	79.323749	7.006528	0.000858	-140.124347	-2660.124347	-140.124347	1.380915	0.036891	2.830000	1.061922	0.403909	21.718231
5105.926210	0.971332	0.040581	0.972180	80.310924	7.026313	0.000831	-174.723874	-2694.723874	-174.723874	1.281560	0.035422	2.830000	1.055904	0.402772	22.125973
5179.474679	0.986946	0.073464	0.989676	80.491759	7.046733	0.000805	151.618113	-2728.381887	151.618113	1.281790	0.034984	2.830000	1.049758	0.401605	22.535410
5254.082580	1.032785	0.063381	1.034728	79.822913	7.067752	0.000780	115.891023	-2764.108977	115.891023	1.389349	0.035341	2.830000	1.043498	0.400410	22.945828
5329.765172	1.028824	0.006390	1.028844	77.791968	7.089250	0.000756	76.527868	-2803.472132	76.527868	1.487561	0.034397	2.830000	1.037141	0.399196	23.357623
5406.537936	0.966062	0.004132	0.966070	73.904858	7.111297	0.000732	34.766540	-2845.233460	34.766540	1.534465	0.032017	2.830000	1.030669	0.397958	23.772094
5484.416576	0.955758	0.070597	0.958362	68.684538	7.134082	0.000709	-9.369323	-2889.369323	-9.369323	1.622268	0.030987	2.830000	1.024059	0.396687	24.188775
5563.417021	1.030039	0.089820	1.033948	71.135305	7.157583	0.000687	-56.818872	-2936.818872	-56.818872	1.699891	0.031967	2.830000	1.017330	0.395385	24.606129
5643.555431	1.052900	0.005407	1.052914	75.997847	7.181588	0.000666	-104.993708	-2984.993708	-104.993708	1.597670	0.031723	2.830000	1.010514	0.394063	25.024237
5724.848197	0.965964	-0.015141	0.966083	78.273008	7.206138	0.000645	-147.891475	-3027.891475	-147.891475	1.333792	0.029040	2.830000	1.003590	0.392721	25.445197
5807.311946	0.944426	0.069914	0.947010	79.221685	7.231505	0.000624	174.790114	-3065.209886	174.790114	1.225697	0.027863	2.830000	0.996527	0.391343	25.868518
5890.963548	1.035269	0.094130	1.039539	79.365760	7.257657	0.000604	136.266429	-3103.733571	136.266429	1.357718	0.029071	2.830000	0.989348	0.389933	26.292254
5975.820111	1.052347	-0.005952	1.052363	77.916445	7.284339	0.000585	92.868536	-3147.131464	92.868536	1.449590	0.028718	2.830000	0.982090	0.388505	26.716690
6061.898993	0.955090	-0.010001	0.955142	74.338250	7.311650	0.000567	48.263770	-3191.736230	48.263770	1.441901	0.026105	2.830000	0.974721	0.387054	27.144068
6149.217802	0.957308	0.081401	0.960762	68.529553	7.339854	0.000548	0.847601	-3239.152399	0.847601	1.603860	0.025497	2.830000	0.967219	0.385566	27.573325
6237.794396	1.050997	0.070595	1.053365	68.848870	7.368837	0.000531	-53.290003	-3293.290003	-53.290003	1.750814	0.026608	2.830000	0.959617	0.384050	28.002736
6327.646895	1.022586	-0.019323	1.022768	74.622088	7.398397	0.000514	-107.488189	-3347.488189	-107.488189	1.545474	0.025448	2.830000	0.951935	0.382515	28.433445
6418.793677	0.948431	0.020820	0.948660	77.208155	7.428749	0.000497	-153.329160	-3393.329160	-153.329160	1.282972	0.023514	2.830000	0.944136	0.380952	28.866780
6511.253386	0.994856	0.082801	0.998295	78.364667	7.460017	0.000481	164.609424	-3435.390576	164.609424	1.285953	0.023714	2.830000	0.936223	0.379356	29.301107
6605.044933	1.044604	0.026554	1.044941	78.023827	7.492022	0.000466	119.476273	-3480.523727	119.476273	1.372398	0.023950	2.830000	0.928227	0.377735	29.735838
6700.187504	0.985119	-0.003638	0.985126	75.577274	7.524752	0.000451	72.276563	-3527.723437	72.276563	1.390956	0.022396	2.830000	0.920140	0.376092	30.172463
6796.700558	0.971618	0.050082	0.972908	70.612760	7.558398	0.000436	21.477081	-3578.522919	21.477081	1.563623	0.021616	2.830000	0.911944	0.374418	30.610700
6894.603838	1.019462	0.051690	1.020772	64.957587	7.592918	0.000422	-37.224783	-3637.224783	-37.224783	1.725776	0.021795	2.830000	0.903658	0.372716	31.049511
6993.917368	1.012265	0.012203	1.012339	72.182712	7.628233	0.000408	-96.887513	-3696.887513	-96.887513	1.568186	0.021138	2.830000	0.895291	0.370990	31.489391
7094.661463	0.983290	0.022095	0.983539	75.952489	7.664434	0.000394	-149.544477	-3749.544477	-149.544477	1.355532	0.020182	2.830000	0.886831	0.369238	31.930730
7196.856730	0.991923	0.044892	0.992939	77.322011	7.701569	0.000381	162.276051	-3797.723949	162.276051	1.287198	0.019782	2.830000	0.878283	0.367458	32.373021
7300.524071	1.015252	0.037550	1.015946	76.830974	7.739614	0.000369	113.591389	-3846.408611	113.591389	1.338761	0.019588	2.830000	0.869656	0.365651	32.816051
7405.684692	1.005424	0.009738	1.005471	73.975531	7.778556	0.000357	60.658995	-3899.341005	60.658995	1.464347	0.018952	2.830000	0.860952	0.363821	33.259997
7512.360102	0.974968	0.028901	0.975397	67.045365	7.818455	0.000345	1.539174	-3958.460826	1.539174	1.614700	0.018066	2.830000	0.852168	0.361964	33.705114
7620.572122	1.010525	0.056327	1.012093	66.331097	7.859370	0.000333	-63.150693	-4023.150693	-63.150693	1.673210	0.018031	2.830000	0.843307	0.360080	34.150842
7730.342884	1.021678	0.001822	1.021680	73.497413	7.901218	0.000322	-126.590168	-4086.590168	-126.590168	1.500113	0.017692	2.830000	0.834385	0.358173	34.596986
7841.694843	0.962929	0.021282	0.963164	75.932162	7.944056	0.000311	178.468435	-4141.531565	178.468435	1.268881	0.016531	2.830000	0.825390	0.356241	35.044376
7954.650775	1.014868	0.065982	1.017010	76.214521	7.987998	0.000301	126.769430	-4193.230570	126.769430	1.323924	0.016678	2.830000	0.816326	0.354282	35.492140
8069.233784	1.022167	-0.010604	1.022222	73.831070	8.032902	0.000291	69.108888	-4250.891112	69.108888	1.446420	0.016314	2.830000	0.807212	0.352301	35.940060
8185.467307	0.956136	0.030791	0.956632	67.094117	8.078873	0.000281	6.874209	-4313.125791	6.874209	1.558252	0.015158	2.830000	0.798034	0.350296	36.389174
8303.375120	1.031408	0.059095	1.033099	64.978779	8.125998	0.000272	-63.410525	-4383.410525	-63.410525	1.713484	0.015529	2.830000	0.788798	0.348265	36.838233
8422.981339	1.001538	-0.018254	1.001705	72.682469	8.174123	0.000262	-132.923813	-4452.923813	-132.923813	1.453966	0.014803	2.830000	0.779524	0.346215	37.287530
8544.310429	0.967079	0.051554	0.968452	75.085393	8.223422	0.000253	169.411540	-4510.588460	169.411540	1.256142	0.014049	2.830000	0.770191	0.344139	37.737663
8667.387209	1.039915	0.029543	1.040335	75.002663	8.273879	0.000245	111.519080	-4568.480920	111.519080	1.366365	0.014357	2.830000	0.760821	0.342040	38.187381
8792.236851	0.976415	-0.002242	0.976418	71.347008	8.325425	0.000236	48.940181	-4631.059819	48.940181	1.428847	0.013364	2.830000	0.751414	0.339923	38.637564
8918.884894	0.997450	0.056249	0.999034	62.145396	8.378224	0.000228	-21.639077	-4701.639077	-21.639077	1.681674	0.013174	2.830000	0.741965	0.337780	39.087886
9047.357242	1.019202	0.004826	1.019213	68.545638	8.432184	0.000220	-99.746254	-4779.746254	-99.746254	1.597126	0.012993	2.830000	0.732491	0.335619	39.537850
9177.680175	0.977658	0.024038	0.977953	73.371754	8.487362	0.000213	-167.224187	-4847.224187	-167.224187	1.317552	0.012264	2.830000	0.722986	0.333437	39.988101
9309.880348	1.012169	0.036415	1.012823	74.380500	8.543813	0.000205	131.084126	-4908.915874	131.084126	1.306853	0.012197	2.830000	0.713457	0.331234	40.437990
9443.984802	1.001617	0.008409	1.001652	71.931302	8.601494	0.000198	65.993584	-4974.006416	65.993584	1.407689	0.011759	2.830000	0.703911	0.329013	40.887641
9580.020968	0.986997	0.029262	0.987431	63.728899	8.660475	0.000191	-8.342828	-5048.342828	-8.342828	1.636013	0.011300	2.830000	0.694347	0.326772	41.337124
9718.016671	1.015304	0.028822	1.015713	66.279380	8.720772	0.000185	-91.203680	-5131.203680	-91.203680	1.624182	0.011183	2.830000	0.684772	0.324513	41.786073
9858.000137	0.989791	0.004409	0.989801	72.316495	8.782371	0.000178	-166.229638	-5206.229638	-166.229638	1.351160	0.010665	2.830000	0.675191	0.322236	42.234622
10000.000000	0.998407	0.046307	0.999480	73.381018	8.845353	0.000172	127.888456	-5272.111544	127.888456	1.290224	0.010408	2.830000	0.665603	0.319942	42.682718
10144.045304	1.012911	-0.003676	1.012918	70.554531	8.909682	0.000166	56.803172	-5343.196828	56.803172	1.448995	0.010201	2.830000	0.656020	0.317632	43.129986
10290.165513	0.976006	0.040775	0.976857	60.624013	8.975418	0.000160	-24.003437	-5424.003437	-24.003437	1.640300	0.009642	2.830000	0.646438	0.315306	43.576871
10438.390514	1.030910	0.008377	1.030944	67.654078	9.042579	0.000154	-112.780940	-5512.780940	-112.780940	1.588974	0.009715	2.830000	0.636867	0.312964	44.022656
10588.750628	0.966746	0.024006	0.967044	72.029534	9.111158	0.000149	171.100271	-5588.899729	171.100271	1.268764	0.009008	2.830000	0.627307	0.310608	44.467921
10741.276608	1.033363	0.024650	1.033657	71.993508	9.181237	0.000144	99.908682	-5660.091318	99.908682	1.364327	0.009150	2.830000	0.617764	0.308237	44.912002
10895.999653	0.970168	0.010426	0.970224	66.456822	9.252762	0.000138	20.924868	-5739.075132	20.924868	1.498426	0.008489	2.830000	0.608242	0.305855	45.355296
11052.951411	1.025647	0.033443	1.026192	61.331840	9.325842	0.000134	-71.581616	-5831.581616	-71.581616	1.704022	0.008555	2.830000	0.598744	0.303458	45.797384
11212.163986	0.979409	0.005058	0.979422	69.944612	9.400416	0.000129	-159.873066	-5919.873066	-159.873066	1.353886	0.008029	2.830000	0.589275	0.301051	46.238415
11373.669943	1.015009	0.033959	1.015577	71.600647	9.476586	0.000124	124.607658	-5995.392342	124.607658	1.308971	0.007980	2.830000	0.579836	0.298631	46.678191
11537.502317	0.989916	0.005493	0.989931	68.046395	9.554310	0.000120	44.374006	-6075.625994	44.374006	1.438249	0.007601	2.830000	0.570435	0.296201	47.116686
11703.694619	1.004431	0.031307	1.004919	58.089338	9.633665	0.000115	-50.588624	-6170.588624	-50.588624	1.696925	0.007443	2.830000	0.561072	0.293762	47.553838
11872.280844	0.999880	0.005937	0.999898	68.287834	9.714636	0.000111	-147.206117	-6267.206117	-147.206117	1.430749	0.007192	2.830000	0.551754	0.291313	47.989515
12043.295474	0.995751	0.031830	0.996260	70.738364	9.797278	0.000107	131.365335	-6348.634665	131.365335	1.281321	0.006951	2.830000	0.542481	0.288856	48.423755
12216.773490	1.005779	0.001064	1.005779	67.590249	9.881592	0.000103	46.849246	-6433.150754	46.849246	1.451006	0.006787	2.830000	0.533259	0.286391	48.856330
12392.750375	0.994360	0.038236	0.995095	57.453880	9.967626	0.000099	-53.012549	-6533.012549	-53.012549	1.679085	0.006526	2.830000	0.524090	0.283919	49.287373
12571.262124	1.000541	-0.007024	1.000565	67.857604	10.055379	0.000096	-155.199246	-6635.199246	-155.199246	1.416295	0.006357	2.830000	0.514979	0.281441	49.716586
12752.345251	1.006031	0.042783	1.006940	69.868567	10.144912	0.000092	119.853801	-6720.146199	119.853801	1.298507	0.006188	2.830000	0.505926	0.278958	50.144128
12936.036796	0.984485	-0.004987	0.984498	65.317523	10.236206	0.000089	28.222179	-6811.777821	28.222179	1.472961	0.005910	2.830000	0.496938	0.276470	50.569756
13122.374331	1.022119	0.030963	1.022588	59.693089	10.329340	0.000086	-80.196284	-6920.196284	-80.196284	1.689845	0.005890	2.830000	0.488015	0.273977	50.993490
13311.395971	0.976203	0.013566	0.976298	68.214661	10.424288	0.000082	177.873641	-7022.126359	177.873641	1.304673	0.005528	2.830000	0.479162	0.271481	51.415298
13503.140379	1.019755	0.008891	1.019794	68.438279	10.521118	0.000079	88.104368	-7111.895632	88.104368	1.347419	0.005537	2.830000	0.470380	0.268983	51.834985
13697.646775	0.988038	0.028192	0.988440	60.041030	10.619835	0.000076	-13.581205	-7213.581205	-13.581205	1.618175	0.005253	2.830000	0.461673	0.266482	52.252682
13894.954944	1.004576	0.003138	1.004580	64.322669	10.720470	0.000073	-130.425203	-7330.425203	-130.425203	1.508743	0.005163	2.830000	0.453044	0.263981	52.668139
14095.105244	0.998767	0.026553	0.999120	68.396364	10.823059	0.000071	132.127641	-7427.872359	132.127641	1.284174	0.004993	2.830000	0.444493	0.261479	53.081448
14298.138616	0.997923	0.003681	0.997930	64.582529	10.927616	0.000068	33.272817	-7526.727183	33.272817	1.468487	0.004848	2.830000	0.436026	0.258977	53.492453
14504.096588	1.008544	0.026930	1.008904	58.627917	11.034186	0.000066	-86.316146	-7646.316146	-86.316146	1.658815	0.004747	2.830000	0.427642	0.256476	53.901161
14713.021288	0.982586	0.010543	0.982642	67.185349	11.142777	0.000063	162.865913	-7757.134087	162.865913	1.293973	0.004528	2.830000	0.419345	0.253976	54.307504
14924.955451	1.017209	0.002991	1.017214	66.029381	11.253438	0.000061	62.843618	-7857.156382	62.843618	1.397877	0.004514	2.830000	0.411137	0.251479	54.711376
15139.942425	0.998396	0.036505	0.999063	54.870164	11.366189	0.000058	-56.233340	-7976.233340	-56.233340	1.685124	0.004331	2.830000	0.403019	0.248984	55.112849
15358.026185	0.982069	0.001438	0.982070	65.790206	11.481049	0.000056	-178.195107	-8098.195107	-178.195107	1.333564	0.004163	2.830000	0.394993	0.246493	55.511759
15579.251340	1.018844	0.005394	1.018859	66.142618	11.598070	0.000054	78.051407	-8201.948593	78.051407	1.357561	0.004160	2.830000	0.387061	0.244006	55.908084
15803.663140	0.998511	0.031573	0.999010	54.821100	11.717266	0.000052	-42.753567	-8322.753567	-42.753567	1.680009	0.003989	2.830000	0.379225	0.241524	56.301856
16031.307485	0.987984	0.005913	0.988001	64.811990	11.838665	0.000050	-171.825801	-8451.825801	-171.825801	1.359971	0.003854	2.830000	0.371486	0.239047	56.692942
16262.230941	1.010173	0.009221	1.010215	65.604175	11.962311	0.000048	79.612498	-8560.387502	79.612498	1.339251	0.003813	2.830000	0.363845	0.236576	57.081327
16496.480741	0.996434	0.022478	0.996688	53.770393	12.088225	0.000046	-46.931677	-8686.931677	-46.931677	1.678508	0.003676	2.830000	0.356303	0.234112	57.467011
16734.104799	0.993351	0.003392	0.993356	64.578757	12.216437	0.000044	179.768544	-8820.231456	179.768544	1.352062	0.003571	2.830000	0.348862	0.231655	57.849905
16975.151720	1.014380	0.009203	1.014422	64.510996	12.346988	0.000043	66.331563	-8933.668437	66.331563	1.375239	0.003531	2.830000	0.341522	0.229206	58.229991
17219.670809	1.001434	0.030128	1.001887	53.104235	12.479903	0.000041	-69.378527	-9069.378527	-69.378527	1.683469	0.003407	2.830000	0.334285	0.226765	58.607268
17467.712080	0.981222	0.013758	0.981319	64.757396	12.615209	0.000040	156.836966	-9203.163034	156.836966	1.286110	0.003270	2.830000	0.327152	0.224332	58.981665
17719.326270	0.997448	-0.006208	0.997468	62.159511	12.752948	0.000038	36.614656	-9323.385344	36.614656	1.429833	0.003221	2.830000	0.320122	0.221909	59.353141
17974.564843	1.016519	0.008210	1.016553	57.743958	12.893155	0.000037	-110.699707	-9470.699707	-110.699707	1.619754	0.003179	2.830000	0.313197	0.219496	59.721701
18233.480009	1.004577	0.025114	1.004891	64.711446	13.035855	0.000035	120.092945	-9599.907055	120.092945	1.289204	0.003069	2.830000	0.306376	0.217094	60.087324
18496.124725	0.990120	0.015763	0.990246	56.770640	13.181082	0.000034	-12.042092	-9732.042092	-12.042092	1.589776	0.002956	2.830000	0.299661	0.214702	60.449962
18762.552716	0.997602	0.003009	0.997606	61.940341	13.328875	0.000032	-165.577788	-9885.577788	-165.577788	1.405577	0.002892	2.830000	0.293052	0.212321	60.809585
19032.818477	1.010100	0.009406	1.010144	62.956451	13.479269	0.000031	66.529166	-10013.470834	66.529166	1.359890	0.002839	2.830000	0.286548	0.209952	61.166189
19306.977289	1.005649	0.023261	1.005918	52.928306	13.632296	0.000030	-86.437207	-10166.437207	-86.437207	1.669226	0.002752	2.830000	0.280150	0.207595	61.519759
19585.085230	0.990586	0.023568	0.990866	63.547573	13.787991	0.000029	129.418372	-10310.581628	129.418372	1.272593	0.002648	2.830000	0.273858	0.205251	61.870269
19867.199185	0.983513	0.010602	0.983570	55.935816	13.946389	0.000028	-11.375139	-10451.375139	-11.375139	1.569354	0.002561	2.830000	0.267672	0.202920	62.217693
20000.000000	1.013007	0.021006	1.013224	52.894621	14.021113	0.000027	-90.501843	-10530.501843	-90.501843	1.675090	0.002580	2.830000	0.264826	0.201838	62.378468
