Freq (hertz)	Ra (norm)	Xa (norm)	Za (norm)	SPL (dB)	Ze (ohms)	Xd (mm) 	WPhase (deg)	UPhase (deg)	CPhase (deg)	Delay (msec)	Efficiency (%)	Ein (volts)	Pin (watts)	Iin (amps)	ZePhase (deg)

10.000000	0.000002	0.015476	0.015476	-39.558016	6.520478	0.368858	175.208829	175.208829	175.208829	1.329671	0.000000	2.830000	1.225217	0.434017	4.039828
10.144045	0.000002	0.015700	0.015700	-39.061299	6.521074	0.368841	175.139878	175.139878	175.139878	1.329618	0.000000	2.830000	1.225017	0.433978	4.097924
10.290166	0.000002	0.015926	0.015926	-38.564587	6.521686	0.368824	175.069937	175.069937	175.069937	1.329564	0.000000	2.830000	1.224811	0.433937	4.156853
10.438391	0.000002	0.016155	0.016155	-38.067880	6.522316	0.368806	174.998992	174.998992	174.998992	1.329508	0.000000	2.830000	1.224599	0.433895	4.216626
10.588751	0.000002	0.016388	0.016388	-37.571179	6.522965	0.368788	174.927028	174.927028	174.927028	1.329451	0.000000	2.830000	1.224381	0.433852	4.277256
10.741277	0.000002	0.016624	0.016624	-37.074484	6.523633	0.368769	174.854030	174.854030	174.854030	1.329392	0.000000	2.830000	1.224157	0.433807	4.338754
10.896000	0.000002	0.016864	0.016864	-36.577794	6.524320	0.368749	174.779984	174.779984	174.779984	1.329331	0.000000	2.830000	1.223926	0.433762	4.401133
11.052951	0.000002	0.017107	0.017107	-36.081110	6.525027	0.368730	174.704875	174.704875	174.704875	1.329269	0.000000	2.830000	1.223688	0.433715	4.464406
11.212164	0.000002	0.017354	0.017354	-35.584433	6.525754	0.368709	174.628688	174.628688	174.628688	1.329205	0.000000	2.830000	1.223444	0.433666	4.528584
11.373670	0.000002	0.017604	0.017604	-35.087761	6.526503	0.368688	174.551407	174.551407	174.551407	1.329139	0.000000	2.830000	1.223193	0.433617	4.593682
11.537502	0.000002	0.017857	0.017857	-34.591096	6.527274	0.368666	174.473017	174.473017	174.473017	1.329071	0.000000	2.830000	1.222935	0.433565	4.659711
11.703695	0.000002	0.018115	0.018115	-34.094438	6.528067	0.368644	174.393502	174.393502	174.393502	1.329001	0.000000	2.830000	1.222669	0.433513	4.726685
11.872281	0.000002	0.018376	0.018376	-33.597786	6.528883	0.368621	174.312845	174.312845	174.312845	1.328929	0.000000	2.830000	1.222395	0.433459	4.794618
12.043295	0.000002	0.018641	0.018641	-33.101141	6.529723	0.368598	174.231032	174.231032	174.231032	1.328855	0.000000	2.830000	1.222114	0.433403	4.863522
12.216773	0.000003	0.018910	0.018910	-32.604504	6.530587	0.368573	174.148044	174.148044	174.148044	1.328779	0.000000	2.830000	1.221824	0.433345	4.933412
12.392750	0.000003	0.019182	0.019182	-32.107874	6.531477	0.368548	174.063866	174.063866	174.063866	1.328700	0.000000	2.830000	1.221526	0.433286	5.004301
12.571262	0.000003	0.019459	0.019459	-31.611251	6.532393	0.368523	173.978481	173.978481	173.978481	1.328620	0.000000	2.830000	1.221220	0.433226	5.076204
12.752345	0.000003	0.019739	0.019739	-31.114637	6.533335	0.368496	173.891871	173.891871	173.891871	1.328537	0.000000	2.830000	1.220905	0.433163	5.149134
12.936037	0.000003	0.020024	0.020024	-30.618030	6.534305	0.368469	173.804019	173.804019	173.804019	1.328452	0.000000	2.830000	1.220581	0.433099	5.223107
13.122374	0.000003	0.020312	0.020312	-30.121432	6.535303	0.368441	173.714908	173.714908	173.714908	1.328364	0.000000	2.830000	1.220247	0.433033	5.298136
13.311396	0.000003	0.020605	0.020605	-29.624842	6.536330	0.368412	173.624519	173.624519	173.624519	1.328273	0.000000	2.830000	1.219904	0.432965	5.374237
13.503140	0.000003	0.020902	0.020902	-29.128261	6.537387	0.368383	173.532834	173.532834	173.532834	1.328181	0.000000	2.830000	1.219551	0.432895	5.451425
13.697647	0.000003	0.021204	0.021204	-28.631690	6.538475	0.368352	173.439835	173.439835	173.439835	1.328085	0.000000	2.830000	1.219188	0.432823	5.529715
13.894955	0.000003	0.021509	0.021509	-28.135127	6.539595	0.368321	173.345503	173.345503	173.345503	1.327987	0.000000	2.830000	1.218814	0.432749	5.609123
14.095105	0.000003	0.021820	0.021820	-27.638574	6.540747	0.368289	173.249820	173.249820	173.249820	1.327885	0.000000	2.830000	1.218430	0.432672	5.689663
14.298139	0.000004	0.022134	0.022134	-27.142031	6.541933	0.368255	173.152766	173.152766	173.152766	1.327781	0.000000	2.830000	1.218035	0.432594	5.771352
14.504097	0.000004	0.022453	0.022453	-26.645497	6.543154	0.368221	173.054322	173.054322	173.054322	1.327674	0.000000	2.830000	1.217628	0.432513	5.854207
14.713021	0.000004	0.022777	0.022777	-26.148975	6.544410	0.368186	172.954468	172.954468	172.954468	1.327564	0.000000	2.830000	1.217210	0.432430	5.938242
14.924955	0.000004	0.023105	0.023105	-25.652463	6.545704	0.368150	172.853184	172.853184	172.853184	1.327451	0.000000	2.830000	1.216780	0.432345	6.023475
15.139942	0.000004	0.023439	0.023439	-25.155961	6.547034	0.368113	172.750450	172.750450	172.750450	1.327334	0.000000	2.830000	1.216338	0.432257	6.109923
15.358026	0.000004	0.023777	0.023777	-24.659472	6.548404	0.368074	172.646245	172.646245	172.646245	1.327214	0.000000	2.830000	1.215883	0.432166	6.197602
15.579251	0.000004	0.024120	0.024120	-24.162993	6.549814	0.368035	172.540549	172.540549	172.540549	1.327091	0.000000	2.830000	1.215415	0.432073	6.286530
15.803663	0.000004	0.024467	0.024467	-23.666527	6.551265	0.367995	172.433341	172.433341	172.433341	1.326964	0.000000	2.830000	1.214933	0.431978	6.376723
16.031307	0.000004	0.024820	0.024820	-23.170073	6.552759	0.367953	172.324599	172.324599	172.324599	1.326833	0.000000	2.830000	1.214438	0.431879	6.468200
16.262231	0.000005	0.025178	0.025178	-22.673632	6.554296	0.367910	172.214302	172.214302	172.214302	1.326699	0.000000	2.830000	1.213929	0.431778	6.560977
16.496481	0.000005	0.025541	0.025541	-22.177204	6.555878	0.367866	172.102427	172.102427	172.102427	1.326561	0.000000	2.830000	1.213405	0.431674	6.655074
16.734105	0.000005	0.025910	0.025910	-21.680789	6.557506	0.367821	171.988953	171.988953	171.988953	1.326418	0.000000	2.830000	1.212866	0.431566	6.750509
16.975152	0.000005	0.026284	0.026284	-21.184388	6.559182	0.367774	171.873857	171.873857	171.873857	1.326272	0.000001	2.830000	1.212312	0.431456	6.847299
17.219671	0.000005	0.026663	0.026663	-20.688000	6.560908	0.367726	171.757116	171.757116	171.757116	1.326122	0.000001	2.830000	1.211742	0.431343	6.945464
17.467712	0.000005	0.027047	0.027047	-20.191628	6.562683	0.367677	171.638707	171.638707	171.638707	1.325967	0.000001	2.830000	1.211156	0.431226	7.045023
17.719326	0.000005	0.027438	0.027438	-19.695270	6.564511	0.367626	171.518607	171.518607	171.518607	1.325808	0.000001	2.830000	1.210553	0.431106	7.145994
17.974565	0.000006	0.027833	0.027833	-19.198928	6.566392	0.367574	171.396791	171.396791	171.396791	1.325644	0.000001	2.830000	1.209933	0.430982	7.248397
18.233480	0.000006	0.028235	0.028235	-18.702602	6.568329	0.367520	171.273236	171.273236	171.273236	1.325476	0.000001	2.830000	1.209296	0.430855	7.352253
18.496125	0.000006	0.028642	0.028642	-18.206291	6.570322	0.367465	171.147918	171.147918	171.147918	1.325302	0.000001	2.830000	1.208640	0.430725	7.457580
18.762553	0.000006	0.029056	0.029056	-17.709998	6.572374	0.367408	171.020811	171.020811	171.020811	1.325124	0.000001	2.830000	1.207966	0.430590	7.564399
19.032818	0.000006	0.029475	0.029475	-17.213722	6.574485	0.367349	170.891891	170.891891	170.891891	1.324941	0.000001	2.830000	1.207272	0.430452	7.672730
19.306977	0.000006	0.029900	0.029900	-16.717463	6.576659	0.367289	170.761133	170.761133	170.761133	1.324752	0.000001	2.830000	1.206559	0.430310	7.782594
19.585085	0.000007	0.030332	0.030332	-16.221222	6.578897	0.367227	170.628510	170.628510	170.628510	1.324558	0.000001	2.830000	1.205826	0.430163	7.894011
19.867199	0.000007	0.030770	0.030770	-15.725000	6.581200	0.367163	170.493996	170.493996	170.493996	1.324359	0.000001	2.830000	1.205072	0.430013	8.007004
20.153377	0.000007	0.031214	0.031214	-15.228798	6.583571	0.367098	170.357566	170.357566	170.357566	1.324153	0.000001	2.830000	1.204297	0.429858	8.121592
20.443677	0.000007	0.031664	0.031664	-14.732615	6.586012	0.367030	170.219193	170.219193	170.219193	1.323942	0.000001	2.830000	1.203500	0.429699	8.237799
20.738158	0.000007	0.032121	0.032121	-14.236452	6.588525	0.366961	170.078849	170.078849	170.078849	1.323725	0.000001	2.830000	1.202680	0.429535	8.355645
21.036882	0.000008	0.032585	0.032585	-13.740310	6.591111	0.366890	169.936507	169.936507	169.936507	1.323502	0.000001	2.830000	1.201837	0.429366	8.475153
21.339908	0.000008	0.033055	0.033055	-13.244190	6.593773	0.366816	169.792139	169.792139	169.792139	1.323272	0.000001	2.830000	1.200971	0.429193	8.596346
21.647300	0.000008	0.033533	0.033533	-12.748091	6.596514	0.366741	169.645718	169.645718	169.645718	1.323036	0.000001	2.830000	1.200079	0.429014	8.719245
21.959119	0.000008	0.034017	0.034017	-12.252015	6.599336	0.366663	169.497214	169.497214	169.497214	1.322793	0.000001	2.830000	1.199163	0.428831	8.843874
22.275430	0.000009	0.034508	0.034508	-11.755963	6.602240	0.366583	169.346599	169.346599	169.346599	1.322543	0.000002	2.830000	1.198222	0.428642	8.970255
22.596297	0.000009	0.035006	0.035006	-11.259934	6.605231	0.366501	169.193844	169.193844	169.193844	1.322286	0.000002	2.830000	1.197253	0.428448	9.098413
22.921786	0.000009	0.035512	0.035512	-10.763930	6.608309	0.366417	169.038919	169.038919	169.038919	1.322022	0.000002	2.830000	1.196258	0.428249	9.228371
23.251963	0.000009	0.036025	0.036025	-10.267951	6.611478	0.366330	168.881795	168.881795	168.881795	1.321750	0.000002	2.830000	1.195234	0.428043	9.360153
23.586897	0.000010	0.036545	0.036545	-9.771998	6.614741	0.366241	168.722440	168.722440	168.722440	1.321470	0.000002	2.830000	1.194182	0.427832	9.493783
23.926655	0.000010	0.037073	0.037073	-9.276071	6.618100	0.366149	168.560825	168.560825	168.560825	1.321183	0.000002	2.830000	1.193101	0.427615	9.629285
24.271307	0.000010	0.037608	0.037608	-8.780172	6.621559	0.366054	168.396918	168.396918	168.396918	1.320887	0.000002	2.830000	1.191989	0.427392	9.766685
24.620924	0.000011	0.038152	0.038152	-8.284302	6.625119	0.365957	168.230687	168.230687	168.230687	1.320583	0.000002	2.830000	1.190846	0.427162	9.906006
24.975577	0.000011	0.038703	0.038703	-7.788460	6.628785	0.365857	168.062102	168.062102	168.062102	1.320270	0.000002	2.830000	1.189671	0.426926	10.047275
25.335338	0.000011	0.039262	0.039262	-7.292647	6.632560	0.365754	167.891129	167.891129	167.891129	1.319949	0.000003	2.830000	1.188464	0.426683	10.190516
25.700282	0.000012	0.039829	0.039829	-6.796866	6.636446	0.365649	167.717736	167.717736	167.717736	1.319618	0.000003	2.830000	1.187223	0.426433	10.335756
26.070482	0.000012	0.040405	0.040405	-6.301115	6.640447	0.365540	167.541890	167.541890	167.541890	1.319278	0.000003	2.830000	1.185948	0.426176	10.483020
26.446016	0.000012	0.040989	0.040989	-5.805397	6.644567	0.365428	167.363558	167.363558	167.363558	1.318929	0.000003	2.830000	1.184637	0.425912	10.632334
26.826958	0.000013	0.041581	0.041582	-5.309712	6.648809	0.365313	167.182706	167.182706	167.182706	1.318569	0.000003	2.830000	1.183290	0.425640	10.783726
27.213388	0.000013	0.042183	0.042183	-4.814061	6.653177	0.365195	166.999299	166.999299	166.999299	1.318200	0.000003	2.830000	1.181905	0.425361	10.937221
27.605384	0.000013	0.042792	0.042792	-4.318445	6.657674	0.365073	166.813303	166.813303	166.813303	1.317820	0.000004	2.830000	1.180482	0.425073	11.092847
28.003026	0.000014	0.043411	0.043411	-3.822865	6.662306	0.364948	166.624683	166.624683	166.624683	1.317429	0.000004	2.830000	1.179020	0.424778	11.250631
28.406397	0.000014	0.044039	0.044039	-3.327321	6.667075	0.364820	166.433404	166.433404	166.433404	1.317027	0.000004	2.830000	1.177518	0.424474	11.410600
28.815578	0.000015	0.044676	0.044676	-2.831815	6.671986	0.364688	166.239430	166.239430	166.239430	1.316614	0.000004	2.830000	1.175974	0.424162	11.572782
29.230652	0.000015	0.045322	0.045322	-2.336348	6.677043	0.364552	166.042724	166.042724	166.042724	1.316190	0.000005	2.830000	1.174388	0.423840	11.737204
29.651706	0.000015	0.045978	0.045978	-1.840921	6.682251	0.364412	165.843249	165.843249	165.843249	1.315753	0.000005	2.830000	1.172759	0.423510	11.903896
30.078825	0.000016	0.046643	0.046643	-1.345535	6.687614	0.364268	165.640970	165.640970	165.640970	1.315305	0.000005	2.830000	1.171085	0.423170	12.072885
30.512097	0.000016	0.047318	0.047318	-0.850191	6.693138	0.364120	165.435848	165.435848	165.435848	1.314843	0.000006	2.830000	1.169365	0.422821	12.244199
30.951609	0.000017	0.048003	0.048003	-0.354890	6.698826	0.363968	165.227845	165.227845	165.227845	1.314369	0.000006	2.830000	1.167598	0.422462	12.417868
31.397452	0.000017	0.048697	0.048697	0.140367	6.704685	0.363812	165.016923	165.016923	165.016923	1.313882	0.000006	2.830000	1.165783	0.422093	12.593921
31.849718	0.000018	0.049402	0.049402	0.635578	6.710719	0.363652	164.803043	164.803043	164.803043	1.313380	0.000007	2.830000	1.163918	0.421713	12.772386
32.308498	0.000018	0.050118	0.050118	1.130742	6.716933	0.363486	164.586166	164.586166	164.586166	1.312865	0.000007	2.830000	1.162003	0.421323	12.953294
32.773887	0.000019	0.050843	0.050843	1.625859	6.723334	0.363317	164.366253	164.366253	164.366253	1.312336	0.000007	2.830000	1.160036	0.420922	13.136673
33.245979	0.000020	0.051580	0.051580	2.120927	6.729927	0.363142	164.143264	164.143264	164.143264	1.311792	0.000008	2.830000	1.158016	0.420510	13.322554
33.724872	0.000020	0.052327	0.052327	2.615944	6.736718	0.362963	163.917157	163.917157	163.917157	1.311233	0.000008	2.830000	1.155942	0.420086	13.510966
34.210663	0.000021	0.053085	0.053085	3.110910	6.743714	0.362778	163.687892	163.687892	163.687892	1.310658	0.000009	2.830000	1.153812	0.419650	13.701939
34.703452	0.000021	0.053854	0.053854	3.605822	6.750919	0.362589	163.455429	163.455429	163.455429	1.310067	0.000009	2.830000	1.151624	0.419202	13.895504
35.203338	0.000022	0.054634	0.054634	4.100680	6.758342	0.362394	163.219725	163.219725	163.219725	1.309460	0.000010	2.830000	1.149378	0.418742	14.091692
35.710426	0.000023	0.055426	0.055426	4.595482	6.765989	0.362194	162.980737	162.980737	162.980737	1.308836	0.000011	2.830000	1.147072	0.418268	14.290532
36.224818	0.000023	0.056230	0.056230	5.090227	6.773867	0.361988	162.738425	162.738425	162.738425	1.308195	0.000011	2.830000	1.144704	0.417782	14.492055
36.746619	0.000024	0.057045	0.057045	5.584913	6.781983	0.361776	162.492744	162.492744	162.492744	1.307537	0.000012	2.830000	1.142274	0.417282	14.696293
37.275937	0.000025	0.057872	0.057872	6.079539	6.790345	0.361559	162.243652	162.243652	162.243652	1.306860	0.000013	2.830000	1.139779	0.416768	14.903275
37.812880	0.000025	0.058712	0.058712	6.574103	6.798960	0.361335	161.991104	161.991104	161.991104	1.306164	0.000013	2.830000	1.137218	0.416240	15.113033
38.357556	0.000026	0.059563	0.059563	7.068604	6.807837	0.361106	161.735056	161.735056	161.735056	1.305450	0.000014	2.830000	1.134589	0.415697	15.325599
38.910079	0.000027	0.060428	0.060428	7.563040	6.816984	0.360870	161.475464	161.475464	161.475464	1.304716	0.000015	2.830000	1.131892	0.415140	15.541002
39.470560	0.000028	0.061305	0.061305	8.057410	6.826408	0.360627	161.212283	161.212283	161.212283	1.303962	0.000016	2.830000	1.129123	0.414566	15.759275
40.039115	0.000029	0.062195	0.062195	8.551711	6.836120	0.360378	160.945468	160.945468	160.945468	1.303187	0.000017	2.830000	1.126282	0.413978	15.980448
40.615860	0.000030	0.063098	0.063098	9.045942	6.846128	0.360122	160.674972	160.674972	160.674972	1.302391	0.000018	2.830000	1.123368	0.413372	16.204553
41.200912	0.000030	0.064014	0.064014	9.540102	6.856443	0.359859	160.400750	160.400750	160.400750	1.301574	0.000019	2.830000	1.120377	0.412750	16.431620
41.794392	0.000031	0.064944	0.064944	10.034189	6.867072	0.359588	160.122755	160.122755	160.122755	1.300734	0.000020	2.830000	1.117309	0.412112	16.661681
42.396421	0.000032	0.065888	0.065888	10.528200	6.878028	0.359310	159.840940	159.840940	159.840940	1.299872	0.000021	2.830000	1.114162	0.411455	16.894768
43.007121	0.000033	0.066846	0.066846	11.022135	6.889320	0.359025	159.555257	159.555257	159.555257	1.298986	0.000023	2.830000	1.110934	0.410781	17.130910
43.626619	0.000034	0.067818	0.067818	11.515991	6.900959	0.358732	159.265660	159.265660	159.265660	1.298076	0.000024	2.830000	1.107623	0.410088	17.370139
44.255040	0.000035	0.068804	0.068804	12.009766	6.912956	0.358430	158.972099	158.972099	158.972099	1.297142	0.000025	2.830000	1.104228	0.409376	17.612486
44.892513	0.000036	0.069805	0.069805	12.503459	6.925324	0.358121	158.674528	158.674528	158.674528	1.296183	0.000027	2.830000	1.100747	0.408645	17.857981
45.539168	0.000038	0.070820	0.070820	12.997067	6.938074	0.357803	158.372896	158.372896	158.372896	1.295198	0.000029	2.830000	1.097177	0.407894	18.106655
46.195138	0.000039	0.071851	0.071851	13.490589	6.951219	0.357477	158.067155	158.067155	158.067155	1.294187	0.000030	2.830000	1.093518	0.407123	18.358537
46.860558	0.000040	0.072897	0.072897	13.984022	6.964772	0.357141	157.757255	157.757255	157.757255	1.293149	0.000032	2.830000	1.089766	0.406331	18.613659
47.535562	0.000041	0.073959	0.073959	14.477365	6.978746	0.356797	157.443147	157.443147	157.443147	1.292083	0.000034	2.830000	1.085921	0.405517	18.872050
48.220290	0.000042	0.075036	0.075036	14.970616	6.993155	0.356443	157.124781	157.124781	157.124781	1.290989	0.000036	2.830000	1.081980	0.404681	19.133739
48.914880	0.000044	0.076130	0.076130	15.463772	7.008014	0.356080	156.802105	156.802105	156.802105	1.289866	0.000039	2.830000	1.077942	0.403823	19.398755
49.619476	0.000045	0.077240	0.077240	15.956831	7.023338	0.355707	156.475071	156.475071	156.475071	1.288714	0.000041	2.830000	1.073804	0.402942	19.667127
50.334221	0.000046	0.078366	0.078366	16.449791	7.039142	0.355324	156.143626	156.143626	156.143626	1.287531	0.000044	2.830000	1.069565	0.402038	19.938884
51.059262	0.000048	0.079510	0.079510	16.942651	7.055442	0.354931	155.807720	155.807720	155.807720	1.286317	0.000046	2.830000	1.065223	0.401109	20.214052
51.794747	0.000049	0.080670	0.080670	17.435407	7.072256	0.354527	155.467300	155.467300	155.467300	1.285071	0.000049	2.830000	1.060775	0.400155	20.492660
52.540826	0.000051	0.081848	0.081848	17.928058	7.089601	0.354113	155.122316	155.122316	155.122316	1.283793	0.000052	2.830000	1.056220	0.399176	20.774735
53.297652	0.000053	0.083043	0.083043	18.420601	7.107494	0.353687	154.772716	154.772716	154.772716	1.282482	0.000055	2.830000	1.051556	0.398171	21.060301
54.065379	0.000054	0.084257	0.084257	18.913035	7.125955	0.353251	154.418446	154.418446	154.418446	1.281137	0.000059	2.830000	1.046781	0.397140	21.349386
54.844166	0.000056	0.085489	0.085489	19.405356	7.145003	0.352803	154.059456	154.059456	154.059456	1.279757	0.000063	2.830000	1.041892	0.396081	21.642013
55.634170	0.000058	0.086739	0.086739	19.897563	7.164658	0.352342	153.695692	153.695692	153.695692	1.278341	0.000067	2.830000	1.036889	0.394994	21.938207
56.435554	0.000059	0.088008	0.088008	20.389654	7.184942	0.351870	153.327102	153.327102	153.327102	1.276889	0.000071	2.830000	1.031768	0.393879	22.237991
57.248482	0.000061	0.089296	0.089296	20.881625	7.205877	0.351386	152.953633	152.953633	152.953633	1.275401	0.000075	2.830000	1.026529	0.392735	22.541387
58.073119	0.000063	0.090604	0.090604	21.373476	7.227484	0.350889	152.575231	152.575231	152.575231	1.273874	0.000080	2.830000	1.021169	0.391561	22.848416
58.909635	0.000065	0.091931	0.091931	21.865203	7.249788	0.350379	152.191845	152.191845	152.191845	1.272309	0.000085	2.830000	1.015687	0.390356	23.159099
59.758201	0.000067	0.093279	0.093279	22.356804	7.272814	0.349855	151.803420	151.803420	151.803420	1.270704	0.000090	2.830000	1.010080	0.389120	23.473456
60.618990	0.000070	0.094647	0.094647	22.848277	7.296588	0.349319	151.409903	151.409903	151.409903	1.269059	0.000096	2.830000	1.004346	0.387853	23.791503
61.492178	0.000072	0.096036	0.096036	23.339620	7.321135	0.348768	151.011242	151.011242	151.011242	1.267373	0.000102	2.830000	0.998485	0.386552	24.113257
62.377944	0.000074	0.097446	0.097446	23.830830	7.346484	0.348203	150.607383	150.607383	150.607383	1.265644	0.000109	2.830000	0.992493	0.385218	24.438735
63.276469	0.000076	0.098878	0.098878	24.321906	7.372665	0.347624	150.198272	150.198272	150.198272	1.263873	0.000115	2.830000	0.986370	0.383850	24.767950
64.187937	0.000079	0.100331	0.100331	24.812844	7.399706	0.347030	149.783857	149.783857	149.783857	1.262059	0.000123	2.830000	0.980114	0.382448	25.100914
65.112534	0.000081	0.101807	0.101807	25.303643	7.427641	0.346420	149.364083	149.364083	149.364083	1.260200	0.000131	2.830000	0.973723	0.381009	25.437638
66.050449	0.000084	0.103305	0.103305	25.794301	7.456501	0.345796	148.938898	148.938898	148.938898	1.258295	0.000139	2.830000	0.967195	0.379535	25.778130
67.001875	0.000087	0.104827	0.104827	26.284815	7.486321	0.345156	148.508249	148.508249	148.508249	1.256344	0.000148	2.830000	0.960530	0.378023	26.122399
67.967006	0.000090	0.106372	0.106372	26.775183	7.517138	0.344499	148.072082	148.072082	148.072082	1.254347	0.000157	2.830000	0.953725	0.376473	26.470449
68.946038	0.000093	0.107940	0.107940	27.265404	7.548988	0.343826	147.630345	147.630345	147.630345	1.252301	0.000168	2.830000	0.946779	0.374885	26.822282
69.939174	0.000096	0.109533	0.109533	27.755475	7.581911	0.343137	147.182986	147.182986	147.182986	1.250206	0.000178	2.830000	0.939692	0.373257	27.177900
70.946615	0.000099	0.111151	0.111151	28.245395	7.615947	0.342430	146.729951	146.729951	146.729951	1.248062	0.000190	2.830000	0.932461	0.371589	27.537301
71.968567	0.000102	0.112793	0.112793	28.735161	7.651140	0.341706	146.271188	146.271188	146.271188	1.245868	0.000202	2.830000	0.925086	0.369880	27.900481
73.005241	0.000105	0.114462	0.114462	29.224773	7.687534	0.340964	145.806646	145.806646	145.806646	1.243622	0.000216	2.830000	0.917565	0.368128	28.267432
74.056847	0.000109	0.116156	0.116156	29.714227	7.725176	0.340204	145.336272	145.336272	145.336272	1.241324	0.000230	2.830000	0.909898	0.366335	28.638145
75.123601	0.000113	0.117876	0.117876	30.203524	7.764116	0.339425	144.860015	144.860015	144.860015	1.238972	0.000245	2.830000	0.902084	0.364497	29.012606
76.205721	0.000116	0.119624	0.119624	30.692661	7.804404	0.338628	144.377825	144.377825	144.377825	1.236567	0.000261	2.830000	0.894123	0.362616	29.390801
77.303429	0.000120	0.121399	0.121399	31.181637	7.846094	0.337812	143.889650	143.889650	143.889650	1.234108	0.000278	2.830000	0.886013	0.360689	29.772708
78.416948	0.000124	0.123202	0.123202	31.670451	7.889244	0.336975	143.395440	143.395440	143.395440	1.231592	0.000297	2.830000	0.877755	0.358716	30.158304
79.546508	0.000129	0.125034	0.125034	32.159102	7.933911	0.336119	142.895146	142.895146	142.895146	1.229021	0.000316	2.830000	0.869347	0.356697	30.547563
80.692338	0.000133	0.126894	0.126894	32.647589	7.980160	0.335243	142.388718	142.388718	142.388718	1.226393	0.000337	2.830000	0.860791	0.354630	30.940453
81.854673	0.000138	0.128784	0.128784	33.135911	8.028054	0.334346	141.876107	141.876107	141.876107	1.223706	0.000360	2.830000	0.852086	0.352514	31.336939
83.033751	0.000142	0.130704	0.130704	33.624069	8.077662	0.333428	141.357264	141.357264	141.357264	1.220961	0.000384	2.830000	0.843232	0.350349	31.736980
84.229813	0.000147	0.132655	0.132655	34.112062	8.129058	0.332489	140.832143	140.832143	140.832143	1.218157	0.000410	2.830000	0.834230	0.348134	32.140531
85.443104	0.000152	0.134637	0.134637	34.599890	8.182317	0.331528	140.300695	140.300695	140.300695	1.215294	0.000438	2.830000	0.825080	0.345868	32.547541
86.673872	0.000158	0.136650	0.136650	35.087553	8.237518	0.330545	139.762874	139.762874	139.762874	1.212369	0.000468	2.830000	0.815783	0.343550	32.957954
87.922369	0.000163	0.138696	0.138697	35.575051	8.294746	0.329540	139.218635	139.218635	139.218635	1.209383	0.000499	2.830000	0.806340	0.341180	33.371708
89.188849	0.000169	0.140776	0.140776	36.062386	8.354091	0.328512	138.667931	138.667931	138.667931	1.206336	0.000534	2.830000	0.796753	0.338756	33.788735
90.473572	0.000175	0.142889	0.142889	36.549559	8.415645	0.327461	138.110718	138.110718	138.110718	1.203226	0.000570	2.830000	0.787022	0.336278	34.208960
91.776802	0.000181	0.145036	0.145036	37.036572	8.479509	0.326386	137.546953	137.546953	137.546953	1.200054	0.000610	2.830000	0.777150	0.333746	34.632300
93.098803	0.000188	0.147218	0.147219	37.523425	8.545785	0.325288	136.976592	136.976592	136.976592	1.196818	0.000652	2.830000	0.767138	0.331157	35.058666
94.439848	0.000195	0.149437	0.149437	38.010122	8.614585	0.324166	136.399593	136.399593	136.399593	1.193518	0.000698	2.830000	0.756989	0.328513	35.487959
95.800210	0.000202	0.151691	0.151691	38.496664	8.686026	0.323019	135.815914	135.815914	135.815914	1.190155	0.000747	2.830000	0.746705	0.325811	35.920074
97.180167	0.000209	0.153983	0.153983	38.983056	8.760232	0.321847	135.225515	135.225515	135.225515	1.186726	0.000799	2.830000	0.736288	0.323051	36.354894
98.580001	0.000217	0.156313	0.156313	39.469301	8.837332	0.320650	134.628354	134.628354	134.628354	1.183234	0.000856	2.830000	0.725742	0.320232	36.792293
100.000000	0.000225	0.158682	0.158682	39.955403	8.917468	0.319428	134.024395	134.024395	134.024395	1.179676	0.000917	2.830000	0.715070	0.317355	37.232136
101.440453	0.000233	0.161090	0.161090	40.441366	9.000785	0.318180	133.413597	133.413597	133.413597	1.176054	0.000983	2.830000	0.704275	0.314417	37.674274
102.901655	0.000242	0.163539	0.163539	40.927196	9.087441	0.316907	132.795923	132.795923	132.795923	1.172366	0.001053	2.830000	0.693362	0.311419	38.118548
104.383905	0.000251	0.166029	0.166029	41.412899	9.177602	0.315607	132.171338	132.171338	132.171338	1.168614	0.001130	2.830000	0.682334	0.308359	38.564785
105.887506	0.000261	0.168562	0.168562	41.898480	9.271445	0.314280	131.539804	131.539804	131.539804	1.164797	0.001212	2.830000	0.671196	0.305238	39.012799
107.412766	0.000271	0.171137	0.171137	42.383949	9.369160	0.312927	130.901287	130.901287	130.901287	1.160915	0.001301	2.830000	0.659953	0.302055	39.462389
108.959997	0.000281	0.173757	0.173757	42.869312	9.470947	0.311546	130.255753	130.255753	130.255753	1.156969	0.001397	2.830000	0.648610	0.298809	39.913336
110.529514	0.000292	0.176422	0.176422	43.354578	9.577021	0.310138	129.603168	129.603168	129.603168	1.152958	0.001500	2.830000	0.637173	0.295499	40.365406
112.121640	0.000304	0.179132	0.179133	43.839757	9.687611	0.308703	128.943499	128.943499	128.943499	1.148885	0.001612	2.830000	0.625647	0.292126	40.818345
113.736699	0.000316	0.181890	0.181891	44.324859	9.802962	0.307240	128.276715	128.276715	128.276715	1.144749	0.001733	2.830000	0.614038	0.288688	41.271880
115.375023	0.000328	0.184697	0.184697	44.809897	9.923338	0.305749	127.602784	127.602784	127.602784	1.140550	0.001864	2.830000	0.602354	0.285186	41.725715
117.036946	0.000342	0.187552	0.187553	45.294882	10.049019	0.304230	126.921676	126.921676	126.921676	1.136291	0.002006	2.830000	0.590600	0.281620	42.179531
118.722808	0.000355	0.190459	0.190459	45.779828	10.180306	0.302683	126.233360	126.233360	126.233360	1.131972	0.002160	2.830000	0.578785	0.277988	42.632982
120.432955	0.000370	0.193417	0.193417	46.264751	10.317524	0.301107	125.537807	125.537807	125.537807	1.127593	0.002327	2.830000	0.566915	0.274291	43.085697
122.167735	0.000385	0.196428	0.196428	46.749665	10.461022	0.299503	124.834987	124.834987	124.834987	1.123157	0.002508	2.830000	0.555000	0.270528	43.537272
123.927504	0.000401	0.199493	0.199493	47.234588	10.611175	0.297870	124.124871	124.124871	124.124871	1.118665	0.002704	2.830000	0.543046	0.266700	43.987271
125.712621	0.000418	0.202614	0.202614	47.719539	10.768387	0.296208	123.407432	123.407432	123.407432	1.114118	0.002917	2.830000	0.531063	0.262806	44.435223
127.523453	0.000436	0.205792	0.205793	48.204538	10.933095	0.294517	122.682639	122.682639	122.682639	1.109519	0.003149	2.830000	0.519060	0.258847	44.880614
129.360368	0.000455	0.209029	0.209029	48.689607	11.105771	0.292798	121.950464	121.950464	121.950464	1.104869	0.003402	2.830000	0.507047	0.254822	45.322890
131.223743	0.000474	0.212326	0.212326	49.174769	11.286927	0.291050	121.210878	121.210878	121.210878	1.100170	0.003677	2.830000	0.495032	0.250733	45.761448
133.113960	0.000495	0.215684	0.215685	49.660048	11.477117	0.289272	120.463852	120.463852	120.463852	1.095426	0.003976	2.830000	0.483026	0.246578	46.195633
135.031404	0.000517	0.219106	0.219106	50.145472	11.676942	0.287466	119.709355	119.709355	119.709355	1.090639	0.004303	2.830000	0.471040	0.242358	46.624731
136.976468	0.000540	0.222592	0.222593	50.631070	11.887057	0.285631	118.947357	118.947357	118.947357	1.085811	0.004659	2.830000	0.459083	0.238074	47.047963
138.949549	0.000565	0.226146	0.226147	51.116872	12.108175	0.283767	118.177826	118.177826	118.177826	1.080946	0.005049	2.830000	0.447168	0.233726	47.464482
140.951052	0.000591	0.229768	0.229769	51.602912	12.341073	0.281874	117.400727	117.400727	117.400727	1.076047	0.005474	2.830000	0.435306	0.229316	47.873360
142.981386	0.000618	0.233461	0.233462	52.089224	12.586602	0.279953	116.616026	116.616026	116.616026	1.071119	0.005940	2.830000	0.423508	0.224842	48.273578
145.040966	0.000647	0.237227	0.237228	52.575846	12.845692	0.278003	115.823686	115.823686	115.823686	1.066164	0.006449	2.830000	0.411785	0.220307	48.664024
147.130213	0.000677	0.241067	0.241068	53.062819	13.119364	0.276025	115.023668	115.023668	115.023668	1.061189	0.007007	2.830000	0.400151	0.215712	49.043469
149.249555	0.000710	0.244984	0.244986	53.550185	13.408739	0.274019	114.215928	114.215928	114.215928	1.056196	0.007619	2.830000	0.388617	0.211056	49.410565
151.399424	0.000744	0.248981	0.248982	54.037992	13.715052	0.271985	113.400422	113.400422	113.400422	1.051192	0.008290	2.830000	0.377196	0.206343	49.763821
153.580262	0.000781	0.253060	0.253061	54.526287	14.039664	0.269923	112.577100	112.577100	112.577100	1.046183	0.009027	2.830000	0.365902	0.201572	50.101589
155.792513	0.000820	0.257223	0.257224	55.015122	14.384080	0.267834	111.745909	111.745909	111.745909	1.041173	0.009837	2.830000	0.354746	0.196745	50.422039
158.036631	0.000862	0.261473	0.261475	55.504555	14.749967	0.265718	110.906790	110.906790	110.906790	1.036170	0.010728	2.830000	0.343742	0.191865	50.723138
160.313075	0.000906	0.265813	0.265815	55.994644	15.139173	0.263576	110.059680	110.059680	110.059680	1.031180	0.011707	2.830000	0.332903	0.186932	51.002622
162.622309	0.000953	0.270246	0.270248	56.485451	15.553755	0.261407	109.204507	109.204507	109.204507	1.026211	0.012786	2.830000	0.322243	0.181950	51.257957
164.964807	0.001003	0.274776	0.274778	56.977046	15.996003	0.259212	108.341195	108.341195	108.341195	1.021271	0.013975	2.830000	0.311775	0.176919	51.486303
167.341048	0.001057	0.279404	0.279406	57.469499	16.468474	0.256992	107.469657	107.469657	107.469657	1.016368	0.015285	2.830000	0.301513	0.171843	51.684466
169.751517	0.001114	0.284136	0.284138	57.962886	16.974030	0.254747	106.589800	106.589800	106.589800	1.011512	0.016730	2.830000	0.291469	0.166725	51.848847
172.196708	0.001176	0.288974	0.288977	58.457290	17.515874	0.252477	105.701519	105.701519	105.701519	1.006713	0.018325	2.830000	0.281658	0.161568	51.975366
174.677121	0.001242	0.293923	0.293926	58.952796	18.097607	0.250183	104.804699	104.804699	104.804699	1.001982	0.020085	2.830000	0.272093	0.156374	52.059397
177.193263	0.001313	0.298987	0.298990	59.449497	18.723276	0.247866	103.899210	103.899210	103.899210	0.997331	0.022029	2.830000	0.262787	0.151149	52.095663
179.745648	0.001389	0.304170	0.304173	59.947491	19.397437	0.245527	102.984911	102.984911	102.984911	0.992771	0.024175	2.830000	0.253753	0.145896	52.078131
182.334800	0.001471	0.309477	0.309480	60.446882	20.125224	0.243165	102.061644	102.061644	102.061644	0.988317	0.026546	2.830000	0.245005	0.140620	51.999876
184.961247	0.001559	0.314912	0.314916	60.947781	20.912426	0.240781	101.129233	101.129233	101.129233	0.983984	0.029164	2.830000	0.236556	0.135326	51.852921
187.625527	0.001654	0.320482	0.320486	61.450307	21.765565	0.238377	100.187483	100.187483	100.187483	0.979787	0.032054	2.830000	0.228418	0.130022	51.628040
190.328185	0.001757	0.326192	0.326197	61.954585	22.691976	0.235952	99.236178	99.236178	99.236178	0.975744	0.035245	2.830000	0.220603	0.124714	51.314528
193.069773	0.001868	0.332047	0.332053	62.460750	23.699888	0.233508	98.275076	98.275076	98.275076	0.971873	0.038765	2.830000	0.213125	0.119410	50.899922
195.850852	0.001989	0.338055	0.338061	62.968945	24.798479	0.231045	97.303911	97.303911	97.303911	0.968195	0.042646	2.830000	0.205994	0.114120	50.369661
198.671992	0.002120	0.344222	0.344229	63.479321	25.997894	0.228565	96.322385	96.322385	96.322385	0.964732	0.046921	2.830000	0.199222	0.108855	49.706699
201.533769	0.002262	0.350556	0.350563	63.992043	27.309198	0.226067	95.330166	95.330166	95.330166	0.961508	0.051625	2.830000	0.192821	0.103628	48.891037
204.436768	0.002417	0.357064	0.357072	64.507281	28.744193	0.223553	94.326887	94.326887	94.326887	0.958551	0.056795	2.830000	0.186802	0.098455	47.899195
207.381584	0.002585	0.363755	0.363764	65.025222	30.315019	0.221024	93.312137	93.312137	93.312137	0.955888	0.062468	2.830000	0.181174	0.093353	46.703643
210.368818	0.002770	0.370639	0.370649	65.546063	32.033408	0.218480	92.285460	92.285460	92.285460	0.953553	0.068683	2.830000	0.175947	0.088345	45.272204
213.399082	0.002972	0.377725	0.377737	66.070014	33.909376	0.215923	91.246347	91.246347	91.246347	0.951580	0.075478	2.830000	0.171131	0.083458	43.567555
216.472995	0.003193	0.385024	0.385038	66.597301	35.949066	0.213352	90.194232	90.194232	90.194232	0.950007	0.082894	2.830000	0.166735	0.078722	41.546952
219.591187	0.003437	0.392548	0.392563	67.128163	38.151363	0.210770	89.128481	89.128481	89.128481	0.948878	0.090968	2.830000	0.162767	0.074178	39.162505
222.754295	0.003705	0.400310	0.400327	67.662860	40.502860	0.208178	88.048389	88.048389	88.048389	0.948240	0.099740	2.830000	0.159234	0.069872	36.362458
225.962966	0.004001	0.408323	0.408343	68.201665	42.970894	0.205575	86.953166	86.953166	86.953166	0.948146	0.109248	2.830000	0.156144	0.065859	33.094216
229.217857	0.004328	0.416602	0.416625	68.744876	45.494939	0.202963	85.841929	85.841929	85.841929	0.948655	0.119529	2.830000	0.153503	0.062205	29.310034
232.519632	0.004692	0.425165	0.425191	69.292809	47.977931	0.200343	84.713688	84.713688	84.713688	0.949833	0.130623	2.830000	0.151318	0.058985	24.976290
235.868968	0.005095	0.434028	0.434058	69.845804	50.281413	0.197717	83.567335	83.567335	83.567335	0.951753	0.142569	2.830000	0.149593	0.056283	20.086542
239.266550	0.005545	0.443212	0.443247	70.404227	52.230798	0.195084	82.401624	82.401624	82.401624	0.954499	0.155411	2.830000	0.148333	0.054183	14.676744
242.713072	0.006048	0.452738	0.452779	70.968471	53.637385	0.192447	81.215152	81.215152	81.215152	0.958165	0.169198	2.830000	0.147543	0.052762	8.837904
246.209240	0.006612	0.462631	0.462679	71.538959	54.337973	0.189805	80.006339	80.006339	80.006339	0.962858	0.183986	2.830000	0.147225	0.052081	2.718866
249.755769	0.007245	0.472917	0.472973	72.116148	54.240685	0.187160	78.773402	78.773402	78.773402	0.968699	0.199845	2.830000	0.147381	0.052175	-3.487205
253.353383	0.007960	0.483626	0.483692	72.700528	53.355171	0.184514	77.514321	77.514321	77.514321	0.975826	0.216861	2.830000	0.148016	0.053041	-9.572123
257.002820	0.008769	0.494791	0.494868	73.292631	51.789500	0.181866	76.226806	76.226806	76.226806	0.984400	0.235140	2.830000	0.149128	0.054644	-15.347934
260.704825	0.009687	0.506447	0.506540	73.893031	49.715614	0.179218	74.908253	74.908253	74.908253	0.994603	0.254818	2.830000	0.150720	0.056924	-20.674219
264.460155	0.010733	0.518636	0.518747	74.502348	47.323048	0.176571	73.555690	73.555690	73.555690	1.006648	0.276062	2.830000	0.152792	0.059802	-25.468888
268.269580	0.011930	0.531404	0.531538	75.121254	44.781775	0.173925	72.165720	72.165720	72.165720	1.020782	0.299083	2.830000	0.155343	0.063195	-29.703389
272.133877	0.013305	0.544802	0.544965	75.750477	42.223342	0.171283	70.734445	70.734445	70.734445	1.037293	0.324142	2.830000	0.158373	0.067025	-33.389200
276.053838	0.014891	0.558889	0.559087	76.390804	39.737900	0.168643	69.257375	69.257375	69.257375	1.056520	0.351564	2.830000	0.161880	0.071217	-36.562735
280.030263	0.016729	0.573728	0.573972	77.043090	37.380206	0.166008	67.729322	67.729322	67.729322	1.078862	0.381748	2.830000	0.165864	0.075709	-39.272810
284.063968	0.018868	0.589395	0.589697	77.708261	35.178584	0.163378	66.144266	66.144266	66.144266	1.104792	0.415185	2.830000	0.170321	0.080447	-41.571962
288.155776	0.021372	0.605972	0.606349	78.387319	33.143396	0.160754	64.495191	64.495191	64.495191	1.134874	0.452477	2.830000	0.175250	0.085387	-43.511221
292.306525	0.024317	0.623555	0.624029	79.081345	31.273722	0.158136	62.773887	62.773887	62.773887	1.169785	0.494367	2.830000	0.180648	0.090491	-45.137401
296.517063	0.027801	0.642249	0.642850	79.791505	29.562111	0.155525	60.970699	60.970699	60.970699	1.210335	0.541768	2.830000	0.186515	0.095731	-46.491996
300.788252	0.031948	0.662174	0.662945	80.519048	27.997742	0.152921	59.074219	59.074219	59.074219	1.257511	0.595808	2.830000	0.192847	0.101080	-47.611000
305.120965	0.036913	0.683467	0.684463	81.265303	26.568413	0.150324	57.070896	57.070896	57.070896	1.312505	0.657884	2.830000	0.199644	0.106517	-48.525205
309.516090	0.042899	0.706274	0.707576	82.031665	25.261738	0.147735	54.944556	54.944556	54.944556	1.376778	0.729734	2.830000	0.206904	0.112027	-49.260699
313.974523	0.050163	0.730759	0.732479	82.819574	24.065821	0.145154	52.675792	52.675792	52.675792	1.452113	0.813528	2.830000	0.214628	0.117594	-49.839415
318.497179	0.059043	0.757093	0.759392	83.630471	22.969619	0.142579	50.241207	50.241207	50.241207	1.540697	0.911982	2.830000	0.222817	0.123206	-50.279655
323.084981	0.069975	0.785447	0.788558	84.465727	21.963103	0.140011	47.612469	47.612469	47.612469	1.645208	1.028501	2.830000	0.231473	0.128852	-50.596556
327.738869	0.083533	0.815975	0.820240	85.326522	21.037318	0.137447	44.755156	44.755156	44.755156	1.768907	1.167348	2.830000	0.240601	0.134523	-50.802466
332.459793	0.100465	0.848779	0.854704	86.213655	20.184388	0.134888	41.627372	41.627372	41.627372	1.915721	1.333834	2.830000	0.250205	0.140207	-50.907273
337.248720	0.121748	0.883850	0.892196	87.127241	19.397508	0.132330	38.178168	38.178168	38.178168	2.090275	1.534490	2.830000	0.260291	0.145895	-50.918673
342.106630	0.148636	0.920971	0.932888	88.066237	18.670952	0.129772	34.345914	34.345914	34.345914	2.297789	1.777161	2.830000	0.270862	0.151572	-50.842446
347.034515	0.182706	0.959546	0.976786	89.027731	18.000104	0.127210	30.056977	30.056977	30.056977	2.543684	2.070839	2.830000	0.281917	0.157221	-50.682819
352.033384	0.225841	0.998341	1.023567	90.005892	17.381526	0.124643	25.225499	25.225499	25.225499	2.832612	2.424950	2.830000	0.293439	0.162817	-50.443075
357.104260	0.280077	1.035112	1.072334	90.990509	16.813035	0.122071	19.755821	19.755821	19.755821	3.166454	2.847536	2.830000	0.305385	0.168322	-50.126662
362.248179	0.347168	1.066149	1.121249	91.965170	16.293716	0.119496	13.550167	13.550167	13.550167	3.540764	3.341565	2.830000	0.317662	0.173687	-49.739163
367.466194	0.427658	1.085939	1.167114	92.905423	15.823669	0.116930	6.525312	6.525312	6.525312	3.939426	3.898693	2.830000	0.330107	0.178846	-49.291381
372.759372	0.519365	1.087426	1.205087	93.777888	15.403195	0.114392	-1.358469	-1.358469	-1.358469	4.328774	4.490959	2.830000	0.342464	0.183728	-48.803170
378.128796	0.615716	1.063620	1.228981	94.542092	15.031133	0.111915	-10.057707	-10.057707	-10.057707	4.655516	5.064159	2.830000	0.354407	0.188276	-48.305973
383.575563	0.705327	1.010946	1.232680	95.156888	14.702636	0.109538	-19.408833	-19.408833	-19.408833	4.855666	5.541060	2.830000	0.365622	0.192482	-47.839977
389.100789	0.774692	0.932921	1.212638	95.591332	14.407820	0.107294	-29.121320	-29.121320	-29.121320	4.877907	5.842135	2.830000	0.375952	0.196421	-47.442578
394.705603	0.813787	0.840859	1.170168	95.835595	14.133224	0.105188	-38.824455	-38.824455	-38.824455	4.710375	5.918677	2.830000	0.385512	0.200237	-47.132145
400.391152	0.820738	0.749671	1.111584	95.905015	13.866097	0.103200	-48.157066	-48.157066	-48.157066	4.388947	5.775826	2.830000	0.394657	0.204095	-46.899238
406.158599	0.801644	0.671662	1.045831	95.834308	13.598528	0.101290	-56.852063	-56.852063	-56.852063	3.978555	5.466424	2.830000	0.403815	0.208111	-46.713416
412.009123	0.766350	0.613038	0.981381	95.666136	13.328459	0.099420	-64.772510	-64.772510	-64.772510	3.544171	5.062795	2.830000	0.413325	0.212328	-46.539195
417.943921	0.724139	0.574416	0.924300	95.440879	13.057840	0.097562	-71.896776	-71.896776	-71.896776	3.132242	4.629566	2.830000	0.423369	0.216728	-46.348686
423.964207	0.681661	0.553213	0.877899	95.191170	12.790115	0.095702	-78.279394	-78.279394	-78.279394	2.767506	4.211111	2.830000	0.433992	0.221265	-46.125649
430.071212	0.642835	0.545806	0.843292	94.940736	12.528534	0.093836	-84.012898	-84.012898	-84.012898	2.458400	3.831743	2.830000	0.445155	0.225884	-45.863639
436.266186	0.609574	0.548746	0.820185	94.705577	12.275479	0.091966	-89.201412	-89.201412	-89.201412	2.203927	3.501328	2.830000	0.456788	0.230541	-45.562400
442.550395	0.582572	0.559220	0.807538	94.495838	12.032409	0.090094	-93.946109	-93.946109	-93.946109	1.998803	3.221168	2.830000	0.468807	0.235198	-45.224815
448.925126	0.561892	0.575096	0.804026	94.317576	11.800052	0.088225	-98.338916	-98.338916	-98.338916	1.836495	2.988292	2.830000	0.481139	0.239829	-44.854958
455.391681	0.547324	0.594813	0.808311	94.174115	11.578627	0.086364	-102.460928	-102.460928	-102.460928	1.710724	2.798065	2.830000	0.493716	0.244416	-44.457055
461.951385	0.538590	0.617240	0.819185	94.067007	11.368035	0.084513	-106.383115	-106.383115	-106.383115	1.616080	2.645583	2.830000	0.506483	0.248944	-44.035009
468.605578	0.535446	0.641538	0.835627	93.996658	11.167993	0.082677	-110.167957	-110.167957	-110.167957	1.548176	2.526339	2.830000	0.519392	0.253403	-43.592240
475.355621	0.537732	0.667049	0.856802	93.962723	10.978127	0.080857	-113.871326	-113.871326	-113.871326	1.503603	2.436476	2.830000	0.532401	0.257785	-43.131679
482.202895	0.545389	0.693212	0.882038	93.964321	10.798028	0.079056	-117.544271	-117.544271	-117.544271	1.479796	2.372830	2.830000	0.545474	0.262085	-42.655829
489.148802	0.558459	0.719485	0.910788	94.000127	10.627289	0.077275	-121.234599	-121.234599	-121.234599	1.474882	2.332870	2.830000	0.558575	0.266296	-42.166858
496.194760	0.577072	0.745280	0.942579	94.068376	10.465530	0.075516	-124.988176	-124.988176	-124.988176	1.487524	2.314581	2.830000	0.571672	0.270412	-41.666704
503.342213	0.601422	0.769902	0.976963	94.166784	10.312405	0.073780	-128.849922	-128.849922	-128.849922	1.516754	2.316319	2.830000	0.584728	0.274427	-41.157189
510.592621	0.631719	0.792483	1.013458	94.292406	10.167610	0.072069	-132.864431	-132.864431	-132.864431	1.561790	2.336617	2.830000	0.597709	0.278335	-40.640139
517.947468	0.668126	0.811928	1.051485	94.441433	10.030877	0.070385	-137.076112	-137.076112	-137.076112	1.621822	2.373960	2.830000	0.610575	0.282129	-40.117520
525.408258	0.710653	0.826863	1.090289	94.608940	9.901966	0.068730	-141.528684	-141.528684	-141.528684	1.695730	2.426492	2.830000	0.623282	0.285802	-39.591586
532.976517	0.759008	0.835617	1.128871	94.788611	9.780639	0.067105	-146.263803	-146.263803	-146.263803	1.781749	2.491652	2.830000	0.635783	0.289347	-39.065019
540.653794	0.812401	0.836261	1.165903	94.972477	9.666624	0.065516	-151.318543	-151.318543	-151.318543	1.877061	2.565762	2.830000	0.648029	0.292760	-38.541049
548.441658	0.869324	0.826757	1.199688	95.150753	9.559565	0.063964	-156.721554	-156.721554	-156.721554	1.977383	2.643610	2.830000	0.659975	0.296039	-38.023488
556.341702	0.927350	0.805247	1.228170	95.311899	9.458955	0.062455	-162.487883	-162.487883	-162.487883	2.076666	2.718181	2.830000	0.671583	0.299187	-37.516599
564.355543	0.983063	0.770519	1.249044	95.443045	9.364075	0.060992	-168.612977	-168.612977	-168.612977	2.167109	2.780735	2.830000	0.682835	0.302219	-37.024701
572.484820	1.032251	0.722572	1.260020	95.530915	9.273964	0.059578	-175.067114	-175.067114	-175.067114	2.239745	2.821506	2.830000	0.693741	0.305155	-36.551480
580.731195	1.070466	0.663119	1.259216	95.563273	9.187452	0.058213	178.207771	-181.792229	178.207771	2.285725	2.831144	2.830000	0.704351	0.308029	-36.099072
589.096355	1.093907	0.595747	1.245611	95.530692	9.103280	0.056897	171.296616	-188.703384	171.296616	2.298163	2.802724	2.830000	0.714750	0.310877	-35.667199
597.582011	1.100365	0.525520	1.219416	95.428220	9.020301	0.055625	164.303816	-195.696184	164.303816	2.273959	2.733676	2.830000	0.725051	0.313737	-35.252791
606.189899	1.089838	0.458055	1.182185	95.256406	8.937685	0.054388	157.340637	-202.659363	157.340637	2.214805	2.626767	2.830000	0.735367	0.316637	-34.850384
614.921780	1.064502	0.398386	1.136607	95.021295	8.855050	0.053179	150.510566	-209.489434	150.510566	2.126853	2.489574	2.830000	0.745794	0.319592	-34.453254
623.779440	1.028075	0.350083	1.086046	94.733395	8.772463	0.051991	143.896736	-216.103264	143.896736	2.019163	2.332629	2.830000	0.756388	0.322600	-34.054848
632.764690	0.984893	0.314901	1.034010	94.406011	8.690323	0.050818	137.554518	-222.445482	137.554518	1.901656	2.167068	2.830000	0.767166	0.325650	-33.649945
641.879368	0.939073	0.292961	0.983710	94.053458	8.609194	0.049657	131.510070	-228.489930	131.510070	1.783347	2.002681	2.830000	0.778106	0.328718	-33.235209
651.125339	0.894004	0.283228	0.937796	93.689616	8.529654	0.048506	125.763516	-234.236484	125.763516	1.671331	1.846854	2.830000	0.789167	0.331784	-32.809155
660.504493	0.852173	0.284035	0.898262	93.326987	8.452199	0.047365	120.294538	-239.705462	120.294538	1.570516	1.704384	2.830000	0.800295	0.334824	-32.371755
670.018750	0.815230	0.293507	0.866457	92.976259	8.377197	0.046236	115.068388	-244.931612	115.068388	1.483859	1.577830	2.830000	0.811436	0.337822	-31.923930
679.670056	0.784170	0.309824	0.843157	92.646219	8.304892	0.045119	110.041090	-249.958910	110.041090	1.412828	1.468108	2.830000	0.822541	0.340763	-31.467104
689.460384	0.759530	0.331356	0.828663	92.343891	8.235420	0.044017	105.163333	-254.836667	105.163333	1.357887	1.375055	2.830000	0.833565	0.343638	-31.002883
699.391737	0.741570	0.356694	0.822895	92.074746	8.168836	0.042930	100.383062	-259.616938	100.383062	1.318897	1.297905	2.830000	0.844474	0.346439	-30.532860
709.466146	0.730400	0.384623	0.825481	91.842930	8.105141	0.041861	95.646981	-264.353019	95.646981	1.295423	1.235608	2.830000	0.855237	0.349161	-30.058514
719.685673	0.726076	0.414070	0.835847	91.651436	8.044299	0.040810	90.901274	-269.098726	90.901274	1.286915	1.187041	2.830000	0.865830	0.351802	-29.581184
730.052407	0.728645	0.444033	0.853281	91.502206	7.986258	0.039778	86.091826	-273.908174	86.091826	1.292824	1.151115	2.830000	0.876232	0.354359	-29.102079
740.568469	0.738166	0.473497	0.876977	91.396148	7.930955	0.038766	81.164197	-278.835803	81.164197	1.312632	1.126814	2.830000	0.886423	0.356830	-28.622319
751.236010	0.754692	0.501361	0.906048	91.333055	7.878326	0.037774	76.063601	-283.936399	76.063601	1.345814	1.113174	2.830000	0.896388	0.359213	-28.142986
762.057212	0.778212	0.526356	0.939503	91.311427	7.828306	0.036804	70.735145	-289.264855	70.735145	1.391741	1.109216	2.830000	0.906108	0.361509	-27.665193
773.034288	0.808557	0.546983	0.976194	91.328197	7.780822	0.035856	65.124650	-294.875350	65.124650	1.449491	1.113828	2.830000	0.915569	0.363715	-27.190144
784.169484	0.845239	0.561480	1.014736	91.378387	7.735790	0.034931	59.180449	-300.819551	59.180449	1.517574	1.125601	2.830000	0.924756	0.365832	-26.719192
795.465078	0.887240	0.567869	1.053409	91.454754	7.693095	0.034030	52.856619	-307.143381	52.856619	1.593571	1.142629	2.830000	0.933659	0.367862	-26.253870
806.923378	0.932774	0.564120	1.090091	91.547522	7.652570	0.033154	46.118055	-313.881945	46.118055	1.673724	1.162300	2.830000	0.942274	0.369810	-25.795851
818.546731	0.979077	0.548498	1.122248	91.644396	7.613978	0.032305	38.947484	-321.052516	38.947484	1.752614	1.181171	2.830000	0.950608	0.371685	-25.346808
830.337512	1.022371	0.520102	1.147061	91.731096	7.576988	0.031483	31.353789	-328.646211	31.353789	1.823140	1.195039	2.830000	0.958685	0.373499	-24.908138
842.298134	1.058169	0.479510	1.161745	91.792609	7.541191	0.030687	23.379756	-336.620244	23.379756	1.877110	1.199367	2.830000	0.966547	0.375272	-24.480545
854.431043	1.082019	0.429273	1.164062	91.815226	7.506132	0.029918	15.106113	-344.893887	15.106113	1.906591	1.190113	2.830000	0.974253	0.377025	-24.063618
866.738721	1.090599	0.373920	1.152919	91.789019	7.471395	0.029173	6.648321	-353.351679	6.648321	1.905841	1.164793	2.830000	0.981871	0.378778	-23.655597
879.223685	1.082726	0.319248	1.128812	91.710052	7.436690	0.028448	-1.855642	-361.855642	-1.855642	1.873101	1.123350	2.830000	0.989461	0.380546	-23.253539
891.888489	1.059802	0.271062	1.093918	91.581477	7.401922	0.027741	-10.264530	-370.264530	-10.264530	1.811342	1.068338	2.830000	0.997063	0.382333	-22.853926
904.735724	1.025407	0.233896	1.051745	91.413035	7.367191	0.027047	-18.454502	-378.454502	-18.454502	1.727507	1.004249	2.830000	1.004690	0.384136	-22.453469
917.768017	0.984290	0.210266	1.006498	91.219183	7.332740	0.026365	-26.334811	-386.334811	-26.334811	1.630646	0.936332	2.830000	1.012325	0.385940	-22.049767
930.988035	0.941263	0.200652	0.962412	91.016595	7.298866	0.025693	-33.854889	-393.854889	-33.854889	1.529866	0.869432	2.830000	1.019932	0.387731	-21.641573
944.398480	0.900425	0.203986	0.923242	90.821853	7.265852	0.025031	-41.003257	-401.003257	-41.003257	1.432905	0.807288	2.830000	1.027469	0.389493	-21.228684
958.002097	0.864859	0.218307	0.891986	90.649821	7.233923	0.024380	-47.801359	-407.801359	-47.801359	1.345548	0.752346	2.830000	1.034895	0.391212	-20.811635
971.801667	0.836671	0.241306	0.870774	90.512776	7.203234	0.023739	-54.295828	-414.295828	-54.295828	1.271732	0.705925	2.830000	1.042173	0.392879	-20.391364
985.800014	0.817221	0.270653	0.860873	90.420110	7.173882	0.023110	-60.551570	-420.551570	-60.551570	1.213965	0.668532	2.830000	1.049277	0.394487	-19.968960
1000.000000	0.807375	0.304121	0.862754	90.378342	7.145913	0.022493	-66.646740	-426.646740	-66.646740	1.173819	0.640166	2.830000	1.056183	0.396031	-19.545515
1014.404530	0.807712	0.339560	0.876185	90.391195	7.119348	0.021890	-72.669610	-432.669610	-72.669610	1.152312	0.620550	2.830000	1.062877	0.397508	-19.122075
1029.016551	0.818634	0.374767	0.900340	90.459558	7.094187	0.021300	-78.716803	-438.716803	-78.716803	1.150124	0.609258	2.830000	1.069344	0.398918	-18.699651
1043.839051	0.840353	0.407315	0.933862	90.581232	7.070418	0.020724	-84.891971	-444.891971	-84.891971	1.167604	0.605739	2.830000	1.075575	0.400259	-18.279270
1058.875063	0.872741	0.434365	0.974858	90.750380	7.048017	0.020163	-91.303733	-451.303733	-91.303733	1.204518	0.609244	2.830000	1.081560	0.401531	-17.862048
1074.127661	0.914982	0.452552	1.020781	90.956713	7.026934	0.019617	-98.061266	-458.061266	-98.061266	1.259500	0.618646	2.830000	1.087295	0.402736	-17.449259
1089.599965	0.965041	0.458076	1.068240	91.184575	7.007079	0.019088	-105.265611	-465.265611	-105.265611	1.329183	0.632162	2.830000	1.092783	0.403877	-17.042347
1105.295141	1.019019	0.447210	1.112833	91.412339	6.988289	0.018576	-112.994821	-472.994821	-112.994821	1.407161	0.647067	2.830000	1.098037	0.404963	-16.642815
1121.216399	1.070728	0.417420	1.149216	91.612902	6.970310	0.018081	-121.282747	-481.282747	-121.282747	1.483296	0.659566	2.830000	1.103089	0.406008	-16.251912
1137.366994	1.112073	0.369037	1.171706	91.756251	6.952793	0.017604	-130.095545	-490.095545	-130.095545	1.544319	0.665146	2.830000	1.107991	0.407031	-15.870090
1153.750232	1.134834	0.306738	1.175558	91.814659	6.935355	0.017144	-139.316533	-499.316533	-139.316533	1.576697	0.659654	2.830000	1.112813	0.408054	-15.496418
1170.369462	1.133594	0.239538	1.158626	91.769577	6.917688	0.016699	-148.753719	-508.753719	-148.753719	1.571420	0.640865	2.830000	1.117619	0.409096	-15.128381
1187.228084	1.108266	0.178469	1.122544	91.617339	6.899679	0.016265	-158.177123	-518.177123	-158.177123	1.528238	0.609648	2.830000	1.122448	0.410164	-14.762441
1204.329547	1.064316	0.132934	1.072586	91.370487	6.881440	0.015840	-167.374748	-527.374748	-167.374748	1.456176	0.569762	2.830000	1.127301	0.411251	-14.395186
1221.677349	1.010478	0.108021	1.016236	91.053835	6.863248	0.015422	-176.201966	-536.201966	-176.201966	1.369837	0.526364	2.830000	1.132143	0.412341	-14.024367
1239.275037	0.955672	0.104140	0.961330	90.697634	6.845423	0.015010	175.395608	-544.604392	175.395608	1.284235	0.484255	2.830000	1.136923	0.413415	-13.649239
1257.126212	0.906946	0.118439	0.914647	90.331162	6.828231	0.014605	167.386889	-552.613111	167.386889	1.211243	0.446861	2.830000	1.141591	0.414456	-13.270247
1275.234525	0.868930	0.146569	0.881204	89.978676	6.811854	0.014207	159.675314	-560.324686	159.675314	1.158596	0.416085	2.830000	1.146109	0.415452	-12.888477
1293.603680	0.844251	0.183900	0.864048	89.657710	6.796389	0.013816	152.120866	-567.879134	152.120866	1.130547	0.392671	2.830000	1.150449	0.416398	-12.505212
1312.237433	0.834214	0.226011	0.864288	89.378793	6.781879	0.013435	144.557245	-575.442755	144.557245	1.128998	0.376641	2.830000	1.154596	0.417288	-12.121695
1331.139597	0.839297	0.268654	0.881246	89.145579	6.768329	0.013062	136.803385	-583.196615	136.803385	1.154337	0.367620	2.830000	1.158541	0.418124	-11.739082
1350.314038	0.859304	0.307473	0.912658	88.954751	6.755719	0.012699	128.672054	-591.327946	128.672054	1.205672	0.364959	2.830000	1.162280	0.418904	-11.358483
1369.764677	0.893087	0.337716	0.954807	88.795494	6.744005	0.012346	119.979972	-600.020028	119.979972	1.280347	0.367681	2.830000	1.165815	0.419632	-10.981027
1389.495494	0.937842	0.354265	1.002522	88.648794	6.733102	0.012005	110.564625	-609.435375	110.564625	1.372768	0.374270	2.830000	1.169153	0.420311	-10.607885
1409.510524	0.988208	0.352390	1.049158	88.487548	6.722866	0.011674	100.312138	-619.687862	100.312138	1.472960	0.382420	2.830000	1.172317	0.420951	-10.240147
1429.813862	1.035823	0.329546	1.086982	88.279235	6.713081	0.011355	89.195467	-630.804533	89.195467	1.565998	0.388982	2.830000	1.175341	0.421565	-9.878482
1450.409659	1.070508	0.287844	1.108532	87.993051	6.703480	0.011047	77.310239	-642.689761	77.310239	1.634238	0.390490	2.830000	1.178275	0.422169	-9.522630
1471.302129	1.083729	0.235435	1.109008	87.611412	6.693825	0.010748	64.881705	-655.118295	64.881705	1.663329	0.384374	2.830000	1.181166	0.422778	-9.171064
1492.495545	1.072825	0.184632	1.088597	87.141409	6.684009	0.010459	52.218832	-667.781168	52.218832	1.649286	0.370283	2.830000	1.184045	0.423399	-8.821296
1513.994242	1.042641	0.147022	1.052956	86.619037	6.674107	0.010176	39.624507	-680.375493	39.624507	1.600945	0.350364	2.830000	1.186905	0.424027	-8.470835
1535.802619	1.002999	0.129039	1.011265	86.102442	6.664323	0.009898	27.308446	-692.691554	27.308446	1.535333	0.328180	2.830000	1.189715	0.424649	-8.118138
1557.925134	0.964335	0.130910	0.973180	85.657576	6.654886	0.009626	15.346630	-704.653370	15.346630	1.470090	0.307160	2.830000	1.192433	0.425251	-7.762911
1580.366314	0.934653	0.148447	0.946369	85.342919	6.645973	0.009359	3.691707	-716.308293	3.691707	1.418379	0.289660	2.830000	1.195023	0.425822	-7.405782
1603.130749	0.918673	0.175377	0.935263	85.197825	6.637687	0.009098	-7.790211	-727.790211	-7.790211	1.387641	0.276820	2.830000	1.197463	0.426353	-7.047825
1626.223094	0.918164	0.204846	0.940737	85.235957	6.630063	0.008843	-19.279436	-739.279436	-19.279436	1.380336	0.268800	2.830000	1.199742	0.426844	-6.690217
1649.648074	0.932339	0.230085	0.960310	85.443742	6.623081	0.008595	-30.966742	-750.966742	-30.966742	1.394670	0.265023	2.830000	1.201859	0.427294	-6.334087
1673.410480	0.957813	0.244919	0.988631	85.783184	6.616671	0.008354	-43.017502	-763.017502	-43.017502	1.424502	0.264271	2.830000	1.203825	0.427708	-5.980418
1697.515172	0.988387	0.244824	1.018257	86.198300	6.610717	0.008121	-55.530509	-775.530509	-55.530509	1.459010	0.264728	2.830000	1.205659	0.428093	-5.629907
1721.967081	1.015585	0.228758	1.041030	86.625142	6.605062	0.007896	-68.495690	-788.495690	-68.495690	1.483775	0.264196	2.830000	1.207390	0.428459	-5.282709
1746.771208	1.030968	0.200838	1.050348	87.005327	6.599554	0.007677	-81.772008	-801.772008	-81.772008	1.485029	0.260710	2.830000	1.209047	0.428817	-4.938217
1771.932627	1.029852	0.169860	1.043766	87.300201	6.594105	0.007465	-95.115313	-815.115313	-95.115313	1.456241	0.253381	2.830000	1.210651	0.429171	-4.595140
1797.456484	1.013913	0.145747	1.024334	87.499111	6.588729	0.007258	-108.262728	-828.262728	-108.262728	1.402395	0.242873	2.830000	1.212200	0.429521	-4.252014
1823.348001	0.990248	0.135049	0.999415	87.616434	6.583533	0.007056	-121.034330	-841.034330	-121.034330	1.337819	0.231009	2.830000	1.213676	0.429860	-3.907847
1849.612473	0.967725	0.138743	0.977621	87.679303	6.578648	0.006859	-133.395732	-853.395732	-133.395732	1.279337	0.219824	2.830000	1.215056	0.430180	-3.562423
1876.255272	0.953514	0.153016	0.965714	87.713355	6.574181	0.006666	-145.458627	-865.458627	-145.458627	1.240080	0.210793	2.830000	1.216317	0.430472	-3.216181
1903.281848	0.951356	0.171363	0.966666	87.732243	6.570181	0.006478	-157.436642	-877.436642	-157.436642	1.226606	0.204535	2.830000	1.217448	0.430734	-2.869903
1930.697729	0.961115	0.186544	0.979051	87.732312	6.566643	0.006295	-169.582220	-889.582220	-169.582220	1.238321	0.200822	2.830000	1.218450	0.430966	-2.524433
1958.508523	0.978811	0.192363	0.997534	87.691989	6.563508	0.006117	177.882338	-902.117662	177.882338	1.267699	0.198708	2.830000	1.219333	0.431172	-2.180452
1986.719919	0.997263	0.185729	1.014410	87.576400	6.560678	0.005945	164.832470	-915.167530	164.832470	1.301537	0.196740	2.830000	1.220115	0.431358	-1.838256
2015.337686	1.008276	0.168673	1.022287	87.348321	6.558046	0.005778	151.288116	-928.711884	151.288116	1.324955	0.193430	2.830000	1.220816	0.431531	-1.497562
2044.367679	1.006544	0.148496	1.017439	86.983538	6.555545	0.005616	137.404376	-942.595624	137.404376	1.328453	0.187944	2.830000	1.221449	0.431696	-1.157533
2073.815835	0.993006	0.134523	1.002077	86.482955	6.553186	0.005458	123.386727	-956.613273	123.386727	1.313878	0.180602	2.830000	1.222014	0.431851	-0.817144
2103.688178	0.974606	0.133124	0.983656	85.872886	6.551048	0.005304	109.367900	-970.632100	109.367900	1.293806	0.172700	2.830000	1.222495	0.431992	-0.475713
2133.990819	0.960604	0.144683	0.971438	85.193457	6.549236	0.005154	95.320819	-984.679181	95.320819	1.284620	0.165784	2.830000	1.222872	0.432112	-0.133185
2164.729954	0.958491	0.163932	0.972409	84.484020	6.547824	0.005007	81.050815	-998.949185	81.050815	1.298987	0.160962	2.830000	1.223131	0.432205	0.209953
2195.911873	0.971446	0.182024	0.988352	83.774676	6.546841	0.004864	66.256019	-1013.743981	66.256019	1.341347	0.158568	2.830000	1.223266	0.432270	0.552916
2227.542952	0.996876	0.189053	1.014644	83.088079	6.546252	0.004726	50.629483	-1029.370517	50.629483	1.405608	0.158042	2.830000	1.223284	0.432308	0.894887
2259.629662	1.025663	0.177558	1.040919	82.452230	6.545960	0.004591	33.988751	-1046.011249	33.988751	1.474108	0.157945	2.830000	1.223203	0.432328	1.235332
2292.178566	1.043948	0.147554	1.054324	81.919442	6.545834	0.004462	16.407157	-1063.592843	16.407157	1.520773	0.156324	2.830000	1.223049	0.432336	1.574381
2325.196322	1.040035	0.109902	1.045825	81.571443	6.545770	0.004336	-1.732561	-1081.732561	-1.732561	1.522916	0.151708	2.830000	1.222841	0.432340	1.913033
2358.689683	1.013289	0.081961	1.016598	81.485105	6.545775	0.004213	-19.859402	-1099.859402	-19.859402	1.476895	0.144231	2.830000	1.222576	0.432340	2.252723
2392.665500	0.975690	0.076606	0.978693	81.680968	6.545965	0.004093	-37.478812	-1117.478812	-37.478812	1.401894	0.135641	2.830000	1.222232	0.432327	2.594423
2427.130723	0.943930	0.095124	0.948711	82.117260	6.546486	0.003976	-54.393486	-1134.393486	-54.393486	1.327214	0.128110	2.830000	1.221781	0.432293	2.938158
2462.092401	0.930883	0.128787	0.939749	82.726673	6.547439	0.003861	-70.748285	-1150.748285	-70.748285	1.277343	0.123127	2.830000	1.221203	0.432230	3.283220
2497.557686	0.942003	0.163698	0.956120	83.440019	6.548855	0.003749	-86.934916	-1166.934916	-86.934916	1.264825	0.121143	2.830000	1.220495	0.432137	3.628613
2533.533832	0.974182	0.184621	0.991522	84.180914	6.550694	0.003641	-103.432822	-1183.432822	-103.432822	1.287633	0.121580	2.830000	1.219665	0.432015	3.973364
2570.028197	1.014529	0.179599	1.030304	84.853801	6.552847	0.003537	-120.606709	-1200.606709	-120.606709	1.326986	0.122837	2.830000	1.218734	0.431873	4.316844
2607.048246	1.042522	0.148013	1.052976	85.352026	6.555164	0.003436	-138.488297	-1218.488297	-138.488297	1.351156	0.122656	2.830000	1.217732	0.431721	4.659225
2644.601552	1.041709	0.106268	1.047116	85.597696	6.557543	0.003338	-156.695169	-1236.695169	-156.695169	1.334936	0.119424	2.830000	1.216676	0.431564	5.001707
2682.695795	1.014223	0.078633	1.017267	85.584714	6.560021	0.003242	-174.672852	-1254.672852	-174.672852	1.283327	0.113575	2.830000	1.215555	0.431401	5.345804
2721.338768	0.979337	0.078393	0.982469	85.373454	6.562743	0.003149	167.873306	-1272.126694	167.873306	1.228755	0.107208	2.830000	1.214341	0.431222	5.692212
2760.538375	0.957655	0.100712	0.962936	85.036811	6.565844	0.003057	150.752526	-1289.247474	150.752526	1.204846	0.102346	2.830000	1.213010	0.431018	6.040522
2800.302634	0.959550	0.129561	0.968257	84.607038	6.569378	0.002968	133.399289	-1306.600711	133.399289	1.227455	0.099852	2.830000	1.211553	0.430787	6.389784
2840.639679	0.982259	0.146874	0.993179	84.052220	6.573313	0.002882	115.155450	-1324.844550	115.155450	1.290038	0.099305	2.830000	1.209978	0.430529	6.739081
2881.557759	1.010880	0.140988	1.020665	83.284994	6.577549	0.002799	95.588543	-1344.411457	95.588543	1.365558	0.099255	2.830000	1.208307	0.430251	7.087970
2923.065245	1.025429	0.115428	1.031905	82.210041	6.581975	0.002718	74.738903	-1365.261097	74.738903	1.418796	0.097965	2.830000	1.206557	0.429962	7.436840
2965.170628	1.016248	0.089044	1.020141	80.809274	6.586558	0.002639	53.083076	-1386.916924	53.083076	1.432209	0.094723	2.830000	1.204734	0.429663	7.786738
3007.882518	0.993143	0.080059	0.996365	79.236951	6.591371	0.002563	31.140778	-1408.859222	31.140778	1.419923	0.090460	2.830000	1.202821	0.429349	8.138508
3051.209653	0.974961	0.090661	0.979167	77.909946	6.596520	0.002488	9.094525	-1430.905475	9.094525	1.408986	0.086733	2.830000	1.200798	0.429014	8.492139
3095.160895	0.973375	0.108544	0.979408	77.457650	6.602059	0.002415	-13.212586	-1453.212586	-13.212586	1.413152	0.084397	2.830000	1.198658	0.428654	8.847013
3139.745234	0.986059	0.118341	0.993135	78.140812	6.607966	0.002344	-35.986840	-1475.986840	-35.986840	1.424098	0.083184	2.830000	1.196407	0.428271	9.202510
3184.971790	0.999767	0.113223	1.006158	79.459837	6.614172	0.002276	-59.169325	-1499.169325	-59.169325	1.418939	0.082062	2.830000	1.194059	0.427869	9.558483
3230.849813	1.002014	0.100810	1.007073	80.809404	6.620630	0.002209	-82.336236	-1522.336236	-82.336236	1.380942	0.080156	2.830000	1.191620	0.427452	9.915382
3277.388687	0.993925	0.095367	0.998490	81.919706	6.627360	0.002144	-104.975224	-1544.975224	-104.975224	1.320306	0.077596	2.830000	1.189084	0.427018	10.273804
3324.597932	0.988659	0.101742	0.993880	82.761302	6.634430	0.002081	-126.937164	-1566.937164	-126.937164	1.268436	0.075298	2.830000	1.186441	0.426563	10.633874
3372.487204	0.996417	0.109930	1.002462	83.366012	6.641880	0.002020	-148.589451	-1588.589451	-148.589451	1.249638	0.073898	2.830000	1.183683	0.426084	10.995178
3421.066299	1.012489	0.104996	1.017918	83.720093	6.649683	0.001961	-170.508890	-1610.508890	-170.508890	1.259911	0.073045	2.830000	1.180819	0.425584	11.357254
3470.345152	1.018883	0.083850	1.022328	83.752350	6.657767	0.001903	167.027672	-1632.972328	167.027672	1.269599	0.071617	2.830000	1.177861	0.425067	11.720168
3520.333844	1.003011	0.063776	1.005037	83.403155	6.666106	0.001847	144.272992	-1655.727008	144.272992	1.255268	0.068916	2.830000	1.174812	0.424536	12.084629
3571.042600	0.975893	0.065868	0.978113	82.691294	6.674766	0.001792	121.583370	-1678.416630	121.583370	1.232455	0.065665	2.830000	1.171656	0.423985	12.451267
3622.481792	0.962450	0.090677	0.966712	81.677436	6.683845	0.001739	98.756257	-1701.243743	98.756257	1.241089	0.063287	2.830000	1.168378	0.423409	12.819925
3674.661941	0.977110	0.116894	0.984078	80.359006	6.693381	0.001687	74.938229	-1725.061771	74.938229	1.303283	0.062497	2.830000	1.164975	0.422806	13.189862
3727.593720	1.009768	0.118518	1.016699	78.625814	6.703320	0.001637	49.212242	-1750.787758	49.212242	1.397680	0.062653	2.830000	1.161460	0.422179	13.560417
3781.287957	1.029126	0.089827	1.033039	76.450754	6.713558	0.001588	21.453262	-1778.546738	21.453262	1.464180	0.062099	2.830000	1.157852	0.421535	13.931703
3835.755635	1.014006	0.059406	1.015745	74.637191	6.724059	0.001541	-7.311637	-1807.311637	-7.311637	1.457300	0.059840	2.830000	1.154152	0.420877	14.304705
3891.007893	0.982992	0.058832	0.984751	74.920259	6.734916	0.001495	-35.763674	-1835.763674	-35.763674	1.400267	0.056890	2.830000	1.150342	0.420198	14.680163
3947.056035	0.970726	0.084176	0.974369	76.867877	6.746240	0.001450	-63.469585	-1863.469585	-63.469585	1.351393	0.054919	2.830000	1.146403	0.419493	15.057730
4003.911523	0.988903	0.104696	0.994430	78.963353	6.758047	0.001407	-90.946199	-1890.946199	-90.946199	1.339035	0.054389	2.830000	1.142340	0.418760	15.436556
4061.585988	1.015683	0.095541	1.020167	80.624763	6.770258	0.001364	-118.766334	-1918.766334	-118.766334	1.338532	0.054238	2.830000	1.138168	0.418005	15.816214
4120.091227	1.017931	0.067270	1.020151	81.671723	6.782798	0.001324	-146.684413	-1946.684413	-146.684413	1.305351	0.053020	2.830000	1.133899	0.417232	16.197219
4179.439206	0.994932	0.055089	0.996456	82.120299	6.795702	0.001284	-173.939727	-1973.939727	-173.939727	1.246031	0.050782	2.830000	1.129522	0.416440	16.580406
4239.642065	0.977869	0.069513	0.980337	82.106541	6.809070	0.001245	159.485271	-2000.514729	159.485271	1.215229	0.048858	2.830000	1.125021	0.415622	16.965804
4300.712118	0.984651	0.087434	0.988525	81.692343	6.822937	0.001207	132.581735	-2027.418265	132.581735	1.240591	0.047934	2.830000	1.120395	0.414777	17.352795
4362.661857	1.001183	0.086835	1.004942	80.766639	6.837258	0.001171	104.320422	-2055.679578	104.320422	1.294352	0.047401	2.830000	1.115656	0.413909	17.741028
4425.503952	1.004927	0.074643	1.007695	79.133968	6.851994	0.001135	74.525063	-2085.474937	74.525063	1.336307	0.046395	2.830000	1.110808	0.413018	18.130812
4489.251258	0.998936	0.071245	1.001474	76.649349	6.867175	0.001101	43.486921	-2116.513079	43.486921	1.369426	0.045059	2.830000	1.105845	0.412105	18.522540
4553.916814	1.000955	0.074342	1.003712	73.415183	6.882851	0.001067	11.112927	-2148.887073	11.112927	1.413211	0.044040	2.830000	1.100761	0.411167	18.916066
4619.513847	1.007484	0.066810	1.009697	71.594090	6.899010	0.001035	-22.688983	-2182.688983	-22.688983	1.442459	0.043200	2.830000	1.095562	0.410204	19.311104
4686.055775	0.998861	0.053864	1.000312	73.959887	6.915626	0.001003	-56.993401	-2216.993401	-56.993401	1.409761	0.041878	2.830000	1.090252	0.409218	19.707874
4753.556208	0.980775	0.059866	0.982601	76.878419	6.932737	0.000972	-90.304548	-2250.304548	-90.304548	1.329834	0.040290	2.830000	1.084822	0.408208	20.106754
4822.028953	0.982635	0.081789	0.986033	78.965027	6.950410	0.000942	-122.278180	-2282.278180	-122.278180	1.273355	0.039374	2.830000	1.079267	0.407170	20.507507
4891.488015	1.007855	0.085699	1.011492	80.309354	6.968636	0.000913	-153.974757	-2313.974757	-153.974757	1.267778	0.039186	2.830000	1.073592	0.406105	20.909578
4961.947603	1.018531	0.059762	1.020282	80.890331	6.987347	0.000885	173.864502	-2346.135498	173.864502	1.262741	0.038561	2.830000	1.067810	0.405018	21.313019
5033.422128	0.995605	0.044503	0.996599	80.671032	7.006549	0.000858	141.785809	-2378.214191	141.785809	1.229496	0.036982	2.830000	1.061917	0.403908	21.718545
5105.926210	0.979005	0.063842	0.981084	79.756749	7.026340	0.000831	109.827429	-2410.172571	109.827429	1.231625	0.035629	2.830000	1.055897	0.402770	22.126254
5179.474679	0.997193	0.081525	1.000520	78.092402	7.046755	0.000805	76.299997	-2443.700003	76.299997	1.311352	0.035257	2.830000	1.049754	0.401603	22.535466
5254.082580	1.017440	0.063657	1.019430	75.186994	7.067728	0.000780	39.736266	-2480.263734	39.736266	1.403994	0.034940	2.830000	1.043501	0.400412	22.945908
5329.765172	1.001815	0.041785	1.002686	70.634001	7.089230	0.000756	1.008151	-2518.991849	1.008151	1.425617	0.033704	2.830000	1.037140	0.399197	23.358195
5406.537936	0.980890	0.053955	0.982372	69.358288	7.111350	0.000732	-38.065292	-2558.065292	-38.065292	1.399808	0.032372	2.830000	1.030657	0.397955	23.772619
5484.416576	0.990373	0.073108	0.993068	73.766440	7.134133	0.000709	-76.967115	-2596.967115	-76.967115	1.376179	0.031816	2.830000	1.024053	0.396685	24.188638
5563.417021	1.007586	0.066249	1.009762	77.068312	7.157538	0.000687	-115.636742	-2635.636742	-115.636742	1.337405	0.031449	2.830000	1.017338	0.395387	24.605972
5643.555431	1.004238	0.053505	1.005663	78.872567	7.181550	0.000665	-153.269677	-2673.269677	-153.269677	1.270561	0.030613	2.830000	1.010513	0.394065	25.024982
5724.848197	0.999260	0.054576	1.000749	79.585354	7.206222	0.000644	170.242609	-2709.757391	170.242609	1.232518	0.029760	2.830000	1.003574	0.392716	25.445770
5807.311946	1.001068	0.051432	1.002389	79.375670	7.231567	0.000624	133.575367	-2746.424633	133.575367	1.242421	0.029076	2.830000	0.996522	0.391340	25.868076
5890.963548	0.991958	0.048061	0.993121	78.125953	7.257578	0.000604	95.861291	-2784.138709	95.861291	1.263258	0.028179	2.830000	0.989361	0.389937	26.292001
5975.820111	0.988464	0.061855	0.990398	75.611905	7.284301	0.000585	56.622935	-2823.377065	56.622935	1.314751	0.027419	2.830000	0.982087	0.388507	26.717604
6061.898993	1.007069	0.064793	1.009151	71.157740	7.311751	0.000566	14.454878	-2865.545122	14.454878	1.407384	0.027113	2.830000	0.974703	0.387048	27.144518
6149.217802	1.008950	0.042907	1.009862	66.658069	7.339890	0.000548	-30.575987	-2910.575987	-30.575987	1.437556	0.026486	2.830000	0.967219	0.385564	27.572771
6237.794396	0.987167	0.044198	0.988156	71.660924	7.368754	0.000531	-75.419306	-2955.419306	-75.419306	1.366397	0.025430	2.830000	0.959627	0.384054	28.002782
6327.646895	0.994128	0.064850	0.996241	75.684649	7.398412	0.000514	-118.498980	-2998.498980	-118.498980	1.306947	0.024925	2.830000	0.951926	0.382515	28.434242
6418.793677	1.014379	0.051365	1.015679	77.816616	7.428831	0.000497	-160.977700	-3040.977700	-160.977700	1.280827	0.024664	2.830000	0.944126	0.380948	28.866751
6511.253386	0.996240	0.033496	0.996803	78.428043	7.459992	0.000481	157.221043	-3082.778957	157.221043	1.228949	0.023743	2.830000	0.936230	0.379357	29.300731
6605.044933	0.983421	0.053632	0.984882	77.817021	7.491978	0.000466	116.050834	-3123.949166	116.050834	1.226905	0.022937	2.830000	0.928229	0.377737	29.736272
6700.187504	1.004124	0.061246	1.005990	75.889422	7.524802	0.000450	72.681410	-3167.318590	72.681410	1.313069	0.022694	2.830000	0.920130	0.376090	30.172843
6796.700558	1.007591	0.043277	1.008520	71.678965	7.558427	0.000436	25.607132	-3214.392868	25.607132	1.387787	0.022178	2.830000	0.911942	0.374417	30.610519
6894.603838	0.997119	0.042747	0.998035	64.699988	7.592894	0.000422	-23.937126	-3263.937126	-23.937126	1.417602	0.021458	2.830000	0.903660	0.372717	31.049536
6993.917368	0.998019	0.044378	0.999005	69.770674	7.628236	0.000408	-74.438588	-3314.438588	-74.438588	1.394875	0.020925	2.830000	0.895288	0.370990	31.489642
7094.661463	0.993157	0.045410	0.994195	74.590487	7.664453	0.000394	-123.515537	-3363.515537	-123.515537	1.306479	0.020321	2.830000	0.886828	0.369237	31.930835
7196.856730	1.000111	0.053356	1.001533	76.789801	7.701579	0.000381	-170.257540	-3410.257540	-170.257540	1.246985	0.019895	2.830000	0.878282	0.367457	32.373042
7300.524071	1.007095	0.039680	1.007877	77.281704	7.739608	0.000369	143.415147	-3456.584853	143.415147	1.237672	0.019477	2.830000	0.869656	0.365652	32.816091
7405.684692	0.990387	0.039339	0.991168	76.131089	7.778558	0.000357	96.616528	-3503.383472	96.616528	1.242538	0.018752	2.830000	0.860950	0.363821	33.260205
7512.360102	1.000804	0.054135	1.002267	73.058049	7.818484	0.000345	47.428176	-3552.571824	47.428176	1.334620	0.018394	2.830000	0.852165	0.361963	33.705159
7620.572122	1.008970	0.033751	1.009535	66.163846	7.859359	0.000333	-6.687275	-3606.687275	-6.687275	1.425134	0.018013	2.830000	0.843310	0.360080	34.150736
7730.342884	0.985767	0.036611	0.986447	66.106900	7.901209	0.000322	-62.588631	-3662.588631	-62.588631	1.388857	0.017257	2.830000	0.834383	0.358173	34.597264
7841.694843	0.999428	0.055127	1.000947	72.741814	7.944094	0.000311	-117.041175	-3717.041175	-117.041175	1.331618	0.016957	2.830000	0.825386	0.356240	35.044419
7954.650775	1.009045	0.036418	1.009702	75.590283	7.987982	0.000301	-169.977725	-3769.977725	-169.977725	1.266804	0.016613	2.830000	0.816328	0.354282	35.492028
8069.233784	0.995036	0.035805	0.995680	76.123633	8.032905	0.000291	138.989303	-3821.010697	138.989303	1.221919	0.016010	2.830000	0.807209	0.352301	35.940335
8185.467307	0.997960	0.040303	0.998773	74.754107	8.078901	0.000281	87.114056	-3872.885944	87.114056	1.268244	0.015607	2.830000	0.798032	0.350295	36.389093
8303.375120	0.996798	0.041252	0.997651	70.684272	8.125972	0.000272	31.651908	-3928.348092	31.651908	1.348614	0.015169	2.830000	0.788801	0.348266	36.838260
8422.981339	1.004336	0.040021	1.005133	61.932762	8.174147	0.000262	-28.294681	-3988.294681	-28.294681	1.424990	0.014828	2.830000	0.779519	0.346214	37.287740
8544.310429	0.995780	0.032855	0.996322	68.565290	8.223430	0.000253	-89.870078	-4049.870078	-89.870078	1.369929	0.014333	2.830000	0.770192	0.344139	37.737520
8667.387209	0.999686	0.045369	1.000715	73.463532	8.273865	0.000245	-148.280819	-4108.280819	-148.280819	1.278401	0.013970	2.830000	0.760820	0.342041	38.187541
8792.236851	1.005746	0.028204	1.006141	75.062680	8.325450	0.000236	155.188577	-4164.811423	155.188577	1.237544	0.013636	2.830000	0.751412	0.339922	38.637590
8918.884894	0.986805	0.037603	0.987521	74.238995	8.378213	0.000228	99.342941	-4220.657059	99.342941	1.230456	0.013078	2.830000	0.741966	0.337781	39.087854
9047.357242	1.008011	0.044472	1.008991	70.720243	8.432193	0.000220	39.966244	-4280.033756	39.966244	1.348995	0.012892	2.830000	0.732488	0.335618	39.537998
9177.680175	1.000139	0.026328	1.000485	61.555305	8.487373	0.000213	-25.418499	-4345.418499	-25.418499	1.415548	0.012456	2.830000	0.722985	0.333437	39.988054
9309.880348	0.995831	0.037392	0.996533	67.424849	8.543806	0.000205	-92.116134	-4412.116134	-92.116134	1.374764	0.012061	2.830000	0.713457	0.331234	40.438031
9443.984802	0.999495	0.034530	1.000091	72.639199	8.601502	0.000198	-156.179772	-4476.179772	-156.179772	1.275222	0.011740	2.830000	0.703910	0.329012	40.887716
9580.020968	1.001436	0.035097	1.002051	74.003696	8.660483	0.000191	142.990113	-4537.009887	142.990113	1.227047	0.011413	2.830000	0.694346	0.326772	41.337107
9718.016671	0.996831	0.031015	0.997313	72.579102	8.720766	0.000185	81.493267	-4598.506733	81.493267	1.258120	0.011042	2.830000	0.684772	0.324513	41.786118
9858.000137	1.003344	0.037550	1.004047	67.352562	8.782386	0.000178	15.550467	-4664.449533	15.550467	1.371900	0.010764	2.830000	0.675189	0.322236	42.234672
10000.000000	0.997176	0.023265	0.997447	60.595746	8.845345	0.000172	-56.543351	-4736.543351	-56.543351	1.411729	0.010400	2.830000	0.665604	0.319942	42.682669
10144.045304	0.995664	0.042553	0.996573	69.646604	8.909690	0.000166	-127.240309	-4807.240309	-127.240309	1.316004	0.010078	2.830000	0.656018	0.317632	43.130120
10290.165513	1.007651	0.025426	1.007972	72.752245	8.975423	0.000160	165.365712	-4874.634288	165.365712	1.245689	0.009858	2.830000	0.646438	0.315305	43.576778
10438.390514	0.993117	0.031814	0.993626	72.319496	9.042574	0.000154	99.913088	-4940.086912	99.913088	1.233589	0.009464	2.830000	0.636866	0.312964	44.022773
10588.750628	1.001846	0.030937	1.002324	68.184413	9.111170	0.000149	30.264656	-5009.735344	30.264656	1.345389	0.009234	2.830000	0.627307	0.310608	44.467870
10741.276608	0.999360	0.030894	0.999838	58.746407	9.181229	0.000144	-46.053084	-5086.053084	-46.053084	1.416574	0.008938	2.830000	0.617764	0.308238	44.912074
10895.999653	0.998211	0.029276	0.998640	68.138337	9.252775	0.000138	-123.237559	-5163.237559	-123.237559	1.329644	0.008658	2.830000	0.608242	0.305854	45.355281
11052.951411	1.004277	0.029862	1.004721	71.692051	9.325835	0.000134	164.712088	-5235.287912	164.712088	1.239435	0.008429	2.830000	0.598744	0.303458	45.797414
11212.163986	0.991784	0.025764	0.992119	71.196643	9.400425	0.000129	94.288177	-5305.711823	94.288177	1.231215	0.008100	2.830000	0.589274	0.301050	46.238428
11373.669943	1.007081	0.035064	1.007692	66.362216	9.476585	0.000124	19.408473	-5380.591527	19.408473	1.364570	0.007936	2.830000	0.579836	0.298631	46.678205
11537.502317	0.995079	0.021397	0.995309	59.428209	9.554315	0.000120	-63.459201	-5463.459201	-63.459201	1.404530	0.007628	2.830000	0.570435	0.296201	47.116701
11703.694619	1.001935	0.031538	1.002431	68.599349	9.633665	0.000115	-144.703841	-5544.703841	-144.703841	1.305771	0.007430	2.830000	0.561072	0.293762	47.553842
11872.280844	0.997857	0.026293	0.998204	70.940312	9.714641	0.000111	139.128265	-5620.871735	139.128265	1.220817	0.007181	2.830000	0.551753	0.291313	47.989545
12043.295474	1.000151	0.027230	1.000522	68.964778	9.797278	0.000107	62.807780	-5697.192220	62.807780	1.278977	0.006973	2.830000	0.542481	0.288856	48.423743
12216.773490	1.002628	0.026058	1.002966	60.404745	9.881597	0.000103	-21.113326	-5781.113326	-21.113326	1.406674	0.006771	2.830000	0.533259	0.286391	48.856365
12392.750375	0.992697	0.026159	0.993041	64.584544	9.967623	0.000099	-109.773626	-5869.773626	-109.773626	1.349569	0.006518	2.830000	0.524090	0.283919	49.287361
12571.262124	1.008294	0.026467	1.008642	69.645930	10.055388	0.000096	167.222746	-5952.777254	167.222746	1.249437	0.006392	2.830000	0.514978	0.281441	49.716614
12752.345251	0.992821	0.025406	0.993146	69.197834	10.144906	0.000092	87.109728	-6032.890272	87.109728	1.235654	0.006130	2.830000	0.505926	0.278958	50.144126
12936.036796	1.003269	0.023351	1.003541	62.876975	10.236215	0.000089	0.652894	-6119.347106	0.652894	1.381699	0.005990	2.830000	0.496937	0.276469	50.569762
13122.374331	0.998485	0.027101	0.998853	61.626671	10.329335	0.000086	-93.394669	-6213.394669	-93.394669	1.385122	0.005791	2.830000	0.488015	0.273977	50.993514
13311.395971	1.000892	0.023918	1.001178	68.415152	10.424294	0.000082	177.011257	-6302.988743	177.011257	1.249798	0.005629	2.830000	0.479161	0.271481	51.415280
13503.140379	0.996477	0.021127	0.996701	68.554001	10.521117	0.000079	92.151817	-6387.848183	92.151817	1.233489	0.005445	2.830000	0.470380	0.268983	51.835021
13697.646775	1.005392	0.028103	1.005785	62.379112	10.619837	0.000076	1.530500	-6478.469500	1.530500	1.377772	0.005320	2.830000	0.461673	0.266482	52.252664
13894.954944	0.993476	0.021136	0.993701	61.189233	10.720472	0.000073	-98.147389	-6578.147389	-98.147389	1.371776	0.005121	2.830000	0.453043	0.263981	52.668164
14095.105244	1.003790	0.021290	1.004016	67.826049	10.823059	0.000071	167.712678	-6672.287322	167.712678	1.248299	0.005011	2.830000	0.444494	0.261479	53.081439
14298.138616	0.998772	0.026088	0.999112	67.324304	10.927620	0.000068	77.921556	-6762.078444	77.921556	1.250102	0.004850	2.830000	0.436026	0.258977	53.492468
14504.096588	1.000441	0.020466	1.000650	58.934223	11.034184	0.000066	-20.290919	-6860.290919	-20.290919	1.395983	0.004719	2.830000	0.427642	0.256476	53.901164
14713.021288	0.995996	0.022821	0.996257	63.141337	11.142781	0.000063	-125.055223	-6965.055223	-125.055223	1.336727	0.004572	2.830000	0.419345	0.253976	54.307500
14924.955451	1.005211	0.018808	1.005387	67.533622	11.253439	0.000061	138.060456	-7061.939544	138.060456	1.228740	0.004475	2.830000	0.411137	0.251479	54.711397
15139.942425	0.997983	0.026386	0.998332	64.766862	11.366188	0.000058	42.057000	-7157.943000	42.057000	1.296891	0.004329	2.830000	0.403019	0.248984	55.112843
15358.026185	0.996498	0.018477	0.996670	55.132535	11.481053	0.000056	-66.020969	-7266.020969	-66.020969	1.406977	0.004207	2.830000	0.394993	0.246493	55.511757
15579.251340	1.003402	0.020108	1.003604	65.537986	11.598070	0.000054	-173.280216	-7373.280216	-173.280216	1.271754	0.004114	2.830000	0.387061	0.244006	55.908104
15803.663140	0.997661	0.020059	0.997863	66.255206	11.717264	0.000052	87.165927	-7472.834073	87.165927	1.235219	0.003987	2.830000	0.379225	0.241524	56.301851
16031.307485	1.004015	0.021924	1.004254	57.853306	11.838669	0.000050	-20.077425	-7580.077425	-20.077425	1.396474	0.003899	2.830000	0.371485	0.239047	56.692938
16262.230941	0.995512	0.022235	0.995760	62.359380	11.962311	0.000048	-135.501695	-7695.501695	-135.501695	1.321288	0.003772	2.830000	0.363844	0.236576	57.081344
16496.480741	0.998028	0.015802	0.998153	66.130414	12.088224	0.000046	118.405275	-7801.594725	118.405275	1.217627	0.003680	2.830000	0.356303	0.234112	57.467007
16734.104799	1.004141	0.018934	1.004320	60.950589	12.216440	0.000044	10.025080	-7909.974920	10.025080	1.353498	0.003599	2.830000	0.348862	0.231655	57.849905
16975.151720	0.997702	0.020007	0.997903	59.102421	12.346988	0.000043	-110.851328	-8030.851328	-110.851328	1.368493	0.003489	2.830000	0.341522	0.229206	58.230006
17219.670809	1.003317	0.018352	1.003485	65.461703	12.479901	0.000041	136.222014	-8143.777986	136.222014	1.225582	0.003411	2.830000	0.334285	0.226765	58.607262
17467.712080	0.998908	0.022399	0.999159	61.721965	12.615212	0.000040	24.804988	-8255.195012	24.804988	1.318342	0.003311	2.830000	0.327152	0.224332	58.981657
17719.326270	0.995546	0.018602	0.995719	56.985403	12.752951	0.000038	-100.847720	-8380.847720	-100.847720	1.378104	0.003217	2.830000	0.320122	0.221909	59.353150
17974.564843	1.000400	0.013722	1.000494	64.770637	12.893154	0.000037	140.127761	-8499.872239	140.127761	1.224973	0.003143	2.830000	0.313197	0.219496	59.721711
18233.480009	1.000347	0.019699	1.000541	61.107928	13.035854	0.000035	23.902311	-8616.097689	23.902311	1.320014	0.003060	2.830000	0.306376	0.217094	60.087325
18496.124725	0.998402	0.014917	0.998513	57.041312	13.181083	0.000034	-107.214785	-8747.214785	-107.214785	1.375389	0.002974	2.830000	0.299661	0.214702	60.449957
18762.552716	1.001943	0.014675	1.002051	64.241751	13.328877	0.000032	129.702141	-8870.297859	129.702141	1.223120	0.002901	2.830000	0.293052	0.212321	60.809586
19032.818477	1.004451	0.018413	1.004620	59.066073	13.479270	0.000031	7.194299	-8992.805701	7.194299	1.352177	0.002827	2.830000	0.286548	0.209952	61.166194
19306.977289	0.998308	0.019573	0.998500	58.862048	13.632295	0.000030	-129.782389	-9129.782389	-129.782389	1.343729	0.002738	2.830000	0.280150	0.207595	61.519762
19585.085230	1.000623	0.015049	1.000736	63.549600	13.787990	0.000029	104.080493	-9255.919507	104.080493	1.221868	0.002667	2.830000	0.273858	0.205251	61.870262
19867.199185	1.002256	0.016864	1.002397	54.183523	13.946391	0.000028	-27.291991	-9387.291991	-27.291991	1.395642	0.002595	2.830000	0.267672	0.202920	62.217687
20000.000000	0.997347	0.014170	0.997447	53.697111	14.021112	0.000027	-94.540799	-9454.540799	-94.540799	1.390677	0.002552	2.830000	0.264826	0.201838	62.378473
