Freq (hertz)	Ra (norm)	Xa (norm)	Za (norm)	SPL (dB)	Ze (ohms)	Xd (mm) 	WPhase (deg)	UPhase (deg)	CPhase (deg)	Delay (msec)	Efficiency (%)	Ein (volts)	Pin (watts)	Iin (amps)	ZePhase (deg)

10.000000	0.000277	0.019982	0.019984	69.455424	7.559847	2.125685	134.408107	134.408107	134.408107	8.797627	0.006870	2.830000	0.778500	0.374346	42.705465
10.144045	0.000285	0.020270	0.020272	69.646569	7.621221	2.111710	133.954588	133.954588	133.954588	8.694173	0.007286	2.830000	0.767145	0.371332	43.112747
10.290166	0.000293	0.020562	0.020564	69.836823	7.684230	2.097612	133.499983	133.499983	133.499983	8.590497	0.007727	2.830000	0.755769	0.368287	43.520229
10.438391	0.000302	0.020858	0.020860	70.026184	7.748919	2.083395	133.044368	133.044368	133.044368	8.486641	0.008194	2.830000	0.744378	0.365212	43.927813
10.588751	0.000311	0.021158	0.021160	70.214650	7.815335	2.069060	132.587816	132.587816	132.587816	8.382646	0.008691	2.830000	0.732976	0.362109	44.335402
10.741277	0.000320	0.021463	0.021465	70.402221	7.883527	2.054613	132.130400	132.130400	132.130400	8.278555	0.009218	2.830000	0.721568	0.358976	44.742896
10.896000	0.000329	0.021772	0.021774	70.588895	7.953544	2.040055	131.672195	131.672195	131.672195	8.174411	0.009778	2.830000	0.710159	0.355816	45.150195
11.052951	0.000339	0.022085	0.022088	70.774672	8.025438	2.025392	131.213274	131.213274	131.213274	8.070255	0.010371	2.830000	0.698754	0.352629	45.557198
11.212164	0.000348	0.022403	0.022406	70.959551	8.099264	2.010627	130.753712	130.753712	130.753712	7.966131	0.011002	2.830000	0.687357	0.349414	45.963801
11.373670	0.000358	0.022726	0.022729	71.143534	8.175076	1.995763	130.293583	130.293583	130.293583	7.862081	0.011671	2.830000	0.675974	0.346174	46.369902
11.537502	0.000369	0.023053	0.023056	71.326620	8.252932	1.980805	129.832959	129.832959	129.832959	7.758148	0.012382	2.830000	0.664609	0.342908	46.775397
11.703695	0.000380	0.023385	0.023388	71.508810	8.332892	1.965756	129.371914	129.371914	129.371914	7.654373	0.013137	2.830000	0.653268	0.339618	47.180180
11.872281	0.000391	0.023722	0.023725	71.690106	8.415019	1.950621	128.910519	128.910519	128.910519	7.550798	0.013938	2.830000	0.641954	0.336303	47.584145
12.043295	0.000402	0.024063	0.024067	71.870509	8.499377	1.935403	128.448848	128.448848	128.448848	7.447466	0.014789	2.830000	0.630673	0.332966	47.987186
12.216773	0.000414	0.024410	0.024413	72.050022	8.586033	1.920108	127.986972	127.986972	127.986972	7.344416	0.015693	2.830000	0.619430	0.329605	48.389194
12.392750	0.000426	0.024761	0.024765	72.228646	8.675057	1.904738	127.524961	127.524961	127.524961	7.241691	0.016653	2.830000	0.608229	0.326223	48.790061
12.571262	0.000438	0.025118	0.025121	72.406383	8.766522	1.889299	127.062884	127.062884	127.062884	7.139330	0.017673	2.830000	0.597075	0.322819	49.189678
12.752345	0.000451	0.025479	0.025483	72.583238	8.860503	1.873795	126.600811	126.600811	126.600811	7.037372	0.018756	2.830000	0.585973	0.319395	49.587933
12.936037	0.000464	0.025846	0.025850	72.759214	8.957079	1.858229	126.138811	126.138811	126.138811	6.935857	0.019907	2.830000	0.574926	0.315951	49.984716
13.122374	0.000477	0.026218	0.026223	72.934313	9.056333	1.842608	125.676949	125.676949	125.676949	6.834824	0.021130	2.830000	0.563940	0.312489	50.379914
13.311396	0.000491	0.026596	0.026600	73.108540	9.158350	1.826934	125.215291	125.215291	125.215291	6.734309	0.022429	2.830000	0.553019	0.309008	50.773413
13.503140	0.000505	0.026979	0.026983	73.281899	9.263219	1.811213	124.753904	124.753904	124.753904	6.634349	0.023810	2.830000	0.542167	0.305509	51.165100
13.697647	0.000520	0.027367	0.027372	73.454395	9.371036	1.795449	124.292848	124.292848	124.292848	6.534980	0.025277	2.830000	0.531388	0.301994	51.554859
13.894955	0.000535	0.027761	0.027766	73.626032	9.481896	1.779646	123.832188	123.832188	123.832188	6.436237	0.026836	2.830000	0.520686	0.298464	51.942573
14.095105	0.000551	0.028161	0.028166	73.796816	9.595903	1.763809	123.371983	123.371983	123.371983	6.338154	0.028494	2.830000	0.510066	0.294918	52.328124
14.298139	0.000567	0.028566	0.028572	73.966751	9.713164	1.747943	122.912293	122.912293	122.912293	6.240764	0.030256	2.830000	0.499532	0.291357	52.711394
14.504097	0.000583	0.028977	0.028983	74.135845	9.833790	1.732051	122.453175	122.453175	122.453175	6.144099	0.032129	2.830000	0.489086	0.287783	53.092260
14.713021	0.000600	0.029394	0.029400	74.304101	9.957900	1.716139	121.994686	121.994686	121.994686	6.048189	0.034120	2.830000	0.478733	0.284196	53.470600
14.924955	0.000617	0.029817	0.029824	74.471528	10.085617	1.700210	121.536880	121.536880	121.536880	5.953066	0.036238	2.830000	0.468477	0.280598	53.846291
15.139942	0.000635	0.030247	0.030253	74.638130	10.217071	1.684270	121.079810	121.079810	121.079810	5.858756	0.038489	2.830000	0.458320	0.276987	54.219205
15.358026	0.000654	0.030682	0.030689	74.803915	10.352397	1.668322	120.623528	120.623528	120.623528	5.765288	0.040884	2.830000	0.448267	0.273367	54.589215
15.579251	0.000673	0.031124	0.031131	74.968889	10.491738	1.652371	120.168082	120.168082	120.168082	5.672689	0.043430	2.830000	0.438319	0.269736	54.956189
15.803663	0.000692	0.031572	0.031579	75.133060	10.635246	1.636421	119.713521	119.713521	119.713521	5.580982	0.046139	2.830000	0.428481	0.266096	55.319994
16.031307	0.000712	0.032026	0.032034	75.296434	10.783078	1.620477	119.259890	119.259890	119.259890	5.490192	0.049020	2.830000	0.418756	0.262448	55.680495
16.262231	0.000733	0.032487	0.032495	75.459019	10.935402	1.604543	118.807233	118.807233	118.807233	5.400342	0.052086	2.830000	0.409145	0.258792	56.037550
16.496481	0.000754	0.032955	0.032963	75.620823	11.092395	1.588623	118.355592	118.355592	118.355592	5.311454	0.055347	2.830000	0.399653	0.255130	56.391018
16.734105	0.000776	0.033429	0.033438	75.781854	11.254240	1.572720	117.905007	117.905007	117.905007	5.223546	0.058817	2.830000	0.390280	0.251461	56.740750
16.975152	0.000798	0.033910	0.033920	75.942118	11.421137	1.556840	117.455517	117.455517	117.455517	5.136639	0.062510	2.830000	0.381031	0.247786	57.086597
17.219671	0.000822	0.034398	0.034408	76.101626	11.593291	1.540986	117.007157	117.007157	117.007157	5.050751	0.066439	2.830000	0.371906	0.244107	57.428403
17.467712	0.000845	0.034893	0.034903	76.260383	11.770923	1.525162	116.559961	116.559961	116.559961	4.965896	0.070621	2.830000	0.362909	0.240423	57.766006
17.719326	0.000870	0.035395	0.035406	76.418400	11.954265	1.509371	116.113963	116.113963	116.113963	4.882092	0.075072	2.830000	0.354041	0.236736	58.099239
17.974565	0.000895	0.035905	0.035916	76.575683	12.143565	1.493619	115.669191	115.669191	115.669191	4.799351	0.079811	2.830000	0.345304	0.233045	58.427929
18.233480	0.000921	0.036421	0.036433	76.732242	12.339084	1.477908	115.225675	115.225675	115.225675	4.717686	0.084854	2.830000	0.336701	0.229353	58.751898
18.496125	0.000948	0.036946	0.036958	76.888086	12.541100	1.462241	114.783440	114.783440	114.783440	4.637110	0.090224	2.830000	0.328231	0.225658	59.070956
18.762553	0.000975	0.037477	0.037490	77.043222	12.749908	1.446623	114.342511	114.342511	114.342511	4.557632	0.095941	2.830000	0.319899	0.221962	59.384909
19.032818	0.001004	0.038016	0.038030	77.197660	12.965823	1.431057	113.902908	113.902908	113.902908	4.479262	0.102028	2.830000	0.311703	0.218266	59.693550
19.306977	0.001033	0.038563	0.038577	77.351409	13.189180	1.415547	113.464653	113.464653	113.464653	4.402008	0.108509	2.830000	0.303647	0.214570	59.996665
19.585085	0.001063	0.039118	0.039133	77.504476	13.420336	1.400095	113.027764	113.027764	113.027764	4.325876	0.115411	2.830000	0.295731	0.210874	60.294027
19.867199	0.001094	0.039681	0.039696	77.656872	13.659672	1.384704	112.592255	112.592255	112.592255	4.250872	0.122760	2.830000	0.287955	0.207179	60.585397
20.153377	0.001125	0.040252	0.040268	77.808605	13.907595	1.369379	112.158142	112.158142	112.158142	4.177002	0.130586	2.830000	0.280322	0.203486	60.870522
20.443677	0.001158	0.040831	0.040848	77.959683	14.164539	1.354121	111.725436	111.725436	111.725436	4.104268	0.138921	2.830000	0.272832	0.199795	61.149136
20.738158	0.001192	0.041419	0.041436	78.110116	14.430973	1.338934	111.294148	111.294148	111.294148	4.032674	0.147796	2.830000	0.265486	0.196106	61.420953
21.036882	0.001226	0.042014	0.042032	78.259913	14.707394	1.323821	110.864284	110.864284	110.864284	3.962221	0.157249	2.830000	0.258284	0.192420	61.685672
21.339908	0.001262	0.042619	0.042637	78.409082	14.994340	1.308784	110.435851	110.435851	110.435851	3.892909	0.167315	2.830000	0.251227	0.188738	61.942970
21.647300	0.001298	0.043232	0.043251	78.557632	15.292386	1.293826	110.008854	110.008854	110.008854	3.824738	0.178035	2.830000	0.244316	0.185059	62.192503
21.959119	0.001336	0.043854	0.043874	78.705573	15.602152	1.278949	109.583295	109.583295	109.583295	3.757707	0.189451	2.830000	0.237550	0.181385	62.433902
22.275430	0.001375	0.044484	0.044506	78.852912	15.924307	1.264156	109.159173	109.159173	109.159173	3.691814	0.201607	2.830000	0.230930	0.177716	62.666770
22.596297	0.001415	0.045124	0.045146	78.999659	16.259570	1.249449	108.736487	108.736487	108.736487	3.627056	0.214549	2.830000	0.224457	0.174051	62.890680
22.921786	0.001456	0.045773	0.045796	79.145822	16.608719	1.234830	108.315234	108.315234	108.315234	3.563429	0.228329	2.830000	0.218130	0.170392	63.105173
23.251963	0.001498	0.046432	0.046456	79.291410	16.972596	1.220302	107.895409	107.895409	107.895409	3.500928	0.242998	2.830000	0.211949	0.166739	63.309751
23.586897	0.001541	0.047099	0.047124	79.436431	17.352112	1.205866	107.477005	107.477005	107.477005	3.439548	0.258612	2.830000	0.205915	0.163093	63.503878
23.926655	0.001586	0.047777	0.047803	79.580894	17.748256	1.191525	107.060013	107.060013	107.060013	3.379283	0.275228	2.830000	0.200028	0.159452	63.686967
24.271307	0.001632	0.048464	0.048491	79.724808	18.162100	1.177280	106.644423	106.644423	106.644423	3.320126	0.292909	2.830000	0.194287	0.155819	63.858385
24.620924	0.001679	0.049160	0.049189	79.868180	18.594815	1.163133	106.230222	106.230222	106.230222	3.262069	0.311717	2.830000	0.188691	0.152193	64.017438
24.975577	0.001728	0.049867	0.049897	80.011018	19.047673	1.149086	105.817397	105.817397	105.817397	3.205105	0.331720	2.830000	0.183242	0.148575	64.163372
25.335338	0.001778	0.050584	0.050615	80.153331	19.522065	1.135140	105.405933	105.405933	105.405933	3.149225	0.352987	2.830000	0.177938	0.144964	64.295357
25.700282	0.001830	0.051311	0.051344	80.295127	20.019510	1.121297	104.995812	104.995812	104.995812	3.094420	0.375591	2.830000	0.172779	0.141362	64.412486
26.070482	0.001883	0.052049	0.052083	80.436414	20.541674	1.107558	104.587016	104.587016	104.587016	3.040680	0.399607	2.830000	0.167765	0.137769	64.513760
26.446016	0.001937	0.052797	0.052833	80.577198	21.090386	1.093924	104.179526	104.179526	104.179526	2.987995	0.425112	2.830000	0.162896	0.134184	64.598078
26.826958	0.001993	0.053556	0.053593	80.717489	21.667654	1.080397	103.773318	103.773318	103.773318	2.936354	0.452186	2.830000	0.158171	0.130609	64.664225
27.213388	0.002051	0.054326	0.054365	80.857293	22.275692	1.066978	103.368372	103.368372	103.368372	2.885745	0.480911	2.830000	0.153589	0.127044	64.710855
27.605384	0.002111	0.055107	0.055147	80.996617	22.916944	1.053668	102.964661	102.964661	102.964661	2.836159	0.511368	2.830000	0.149150	0.123489	64.736472
28.003026	0.002172	0.055899	0.055941	81.135470	23.594112	1.040467	102.562161	102.562161	102.562161	2.787582	0.543642	2.830000	0.144853	0.119945	64.739413
28.406397	0.002235	0.056702	0.056746	81.273857	24.310193	1.027377	102.160844	102.160844	102.160844	2.740002	0.577816	2.830000	0.140699	0.116412	64.717822
28.815578	0.002300	0.057517	0.057563	81.411786	25.068512	1.014399	101.760682	101.760682	101.760682	2.693407	0.613974	2.830000	0.136686	0.112891	64.669622
29.230652	0.002366	0.058343	0.058391	81.549263	25.872774	1.001533	101.361646	101.361646	101.361646	2.647784	0.652198	2.830000	0.132813	0.109381	64.592482
29.651706	0.002435	0.059181	0.059232	81.686296	26.727107	0.988779	100.963704	100.963704	100.963704	2.603120	0.692566	2.830000	0.129081	0.105885	64.483780
30.078825	0.002505	0.060032	0.060084	81.822891	27.636128	0.976139	100.566824	100.566824	100.566824	2.559401	0.735154	2.830000	0.125489	0.102402	64.340554
30.512097	0.002578	0.060894	0.060949	81.959053	28.605009	0.963614	100.170974	100.170974	100.170974	2.516615	0.780034	2.830000	0.122035	0.098934	64.159453
30.951609	0.002653	0.061769	0.061826	82.094789	29.639554	0.951202	99.776118	99.776118	99.776118	2.474747	0.827270	2.830000	0.118721	0.095481	63.936669
31.397452	0.002730	0.062656	0.062715	82.230106	30.746290	0.938905	99.382221	99.382221	99.382221	2.433783	0.876917	2.830000	0.115544	0.092044	63.667861
31.849718	0.002809	0.063556	0.063618	82.365008	31.932573	0.926724	98.989248	98.989248	98.989248	2.393709	0.929023	2.830000	0.112504	0.088624	63.348066
32.308498	0.002890	0.064468	0.064533	82.499501	33.206703	0.914657	98.597159	98.597159	98.597159	2.354512	0.983622	2.830000	0.109601	0.085224	62.971587
32.773887	0.002974	0.065394	0.065462	82.633591	34.578060	0.902707	98.205917	98.205917	98.205917	2.316176	1.040734	2.830000	0.106835	0.081844	62.531862
33.245979	0.003060	0.066333	0.066404	82.767283	36.057251	0.890872	97.815482	97.815482	97.815482	2.278688	1.100366	2.830000	0.104204	0.078486	62.021303
33.724872	0.003149	0.067285	0.067359	82.900583	37.656274	0.879153	97.425814	97.425814	97.425814	2.242033	1.162502	2.830000	0.101709	0.075153	61.431107
34.210663	0.003240	0.068251	0.068328	83.033494	39.388689	0.867549	97.036871	97.036871	97.036871	2.206197	1.227111	2.830000	0.099348	0.071848	60.751020
34.703452	0.003334	0.069231	0.069311	83.166022	41.269791	0.856061	96.648611	96.648611	96.648611	2.171165	1.294136	2.830000	0.097122	0.068573	59.969060
35.203338	0.003431	0.070225	0.070308	83.298172	43.316763	0.844689	96.260992	96.260992	96.260992	2.136922	1.363498	2.830000	0.095029	0.065333	59.071175
35.710426	0.003530	0.071232	0.071320	83.429947	45.548779	0.833433	95.873968	95.873968	95.873968	2.103455	1.435090	2.830000	0.093070	0.062131	58.040839
36.224818	0.003633	0.072254	0.072346	83.561352	47.986998	0.822292	95.487497	95.487497	95.487497	2.070748	1.508778	2.830000	0.091244	0.058974	56.858575
36.746619	0.003738	0.073291	0.073386	83.692391	50.654370	0.811266	95.101532	95.101532	95.101532	2.038788	1.584400	2.830000	0.089551	0.055869	55.501393
37.275937	0.003846	0.074342	0.074442	83.823067	53.575080	0.800355	94.716027	94.716027	94.716027	2.007559	1.661765	2.830000	0.087990	0.052823	53.942164
37.812880	0.003958	0.075409	0.075513	83.953385	56.773418	0.789558	94.330936	94.330936	94.330936	1.977048	1.740652	2.830000	0.086561	0.049847	52.148945
38.357556	0.004072	0.076490	0.076599	84.083348	60.271686	0.778876	93.946211	93.946211	93.946211	1.947240	1.820812	2.830000	0.085264	0.046954	50.084339
38.910079	0.004190	0.077587	0.077700	84.212958	64.086603	0.768307	93.561805	93.561805	93.561805	1.918121	1.901968	2.830000	0.084098	0.044159	47.705018
39.470560	0.004312	0.078700	0.078818	84.342219	68.223451	0.757852	93.177668	93.177668	93.177668	1.889677	1.983818	2.830000	0.083064	0.041481	44.961693
40.039115	0.004437	0.079828	0.079951	84.471134	72.667032	0.747510	92.793752	92.793752	92.793752	1.861893	2.066039	2.830000	0.082162	0.038945	41.799986
40.615860	0.004565	0.080972	0.081101	84.599706	77.368600	0.737280	92.410006	92.410006	92.410006	1.834757	2.148288	2.830000	0.081390	0.036578	38.162943
41.200912	0.004697	0.082133	0.082267	84.727936	82.228720	0.727162	92.026382	92.026382	92.026382	1.808253	2.230206	2.830000	0.080750	0.034416	33.996212
41.794392	0.004834	0.083310	0.083450	84.855828	87.078244	0.717156	91.642827	91.642827	91.642827	1.782369	2.311428	2.830000	0.080241	0.032500	29.257063
42.396421	0.004974	0.084504	0.084650	84.983382	91.663996	0.707260	91.259292	91.259292	91.259292	1.757091	2.391583	2.830000	0.079863	0.030874	23.927901
43.007121	0.005118	0.085714	0.085867	85.110602	95.651647	0.697474	90.875723	90.875723	90.875723	1.732405	2.470300	2.830000	0.079617	0.029587	18.033231
43.626619	0.005266	0.086942	0.087101	85.237489	98.661317	0.687798	90.492070	90.492070	90.492070	1.708298	2.547219	2.830000	0.079502	0.028684	11.655636
44.255040	0.005418	0.088187	0.088354	85.364044	100.343023	0.678230	90.108280	90.108280	90.108280	1.684757	2.621990	2.830000	0.079518	0.028203	4.942609
44.892513	0.005575	0.089450	0.089624	85.490268	100.474312	0.668771	89.724300	89.724300	89.724300	1.661769	2.694283	2.830000	0.079667	0.028166	-1.904276
45.539168	0.005737	0.090731	0.090912	85.616163	99.034966	0.659419	89.340077	89.340077	89.340077	1.639321	2.763794	2.830000	0.079948	0.028576	-8.659669
46.195138	0.005903	0.092029	0.092219	85.741729	96.214392	0.650174	88.955558	88.955558	88.955558	1.617400	2.830246	2.830000	0.080361	0.029413	-15.114497
46.860558	0.006074	0.093346	0.093544	85.866968	92.346897	0.641035	88.570689	88.570689	88.570689	1.595995	2.893395	2.830000	0.080907	0.030645	-21.109268
47.535562	0.006250	0.094682	0.094888	85.991879	87.814281	0.632001	88.185416	88.185416	88.185416	1.575092	2.953033	2.830000	0.081586	0.032227	-26.548879
48.220290	0.006431	0.096037	0.096252	86.116463	82.963804	0.623071	87.799685	87.799685	87.799685	1.554680	3.008990	2.830000	0.082399	0.034111	-31.398642
48.914880	0.006617	0.097410	0.097635	86.240720	78.065067	0.614245	87.413442	87.413442	87.413442	1.534745	3.061137	2.830000	0.083346	0.036252	-35.669357
49.619476	0.006808	0.098803	0.099038	86.364650	73.302158	0.605522	87.026633	87.026633	87.026633	1.515278	3.109381	2.830000	0.084428	0.038607	-39.400066
50.334221	0.007006	0.100216	0.100461	86.488252	68.785948	0.596900	86.639201	86.639201	86.639201	1.496265	3.153670	2.830000	0.085645	0.041142	-42.643700
51.059262	0.007208	0.101649	0.101904	86.611527	64.572971	0.588380	86.251093	86.251093	86.251093	1.477696	3.193989	2.830000	0.086999	0.043826	-45.457213
51.794747	0.007417	0.103101	0.103368	86.734473	60.683254	0.579960	85.862254	85.862254	85.862254	1.459558	3.230358	2.830000	0.088489	0.046636	-47.895739
52.540826	0.007632	0.104574	0.104852	86.857089	57.114222	0.571639	85.472628	85.472628	85.472628	1.441842	3.262830	2.830000	0.090117	0.049550	-50.009657
53.297652	0.007853	0.106068	0.106358	86.979374	53.850471	0.563417	85.082161	85.082161	85.082161	1.424535	3.291486	2.830000	0.091884	0.052553	-51.843461
54.065379	0.008080	0.107583	0.107886	87.101327	50.870145	0.555293	84.690797	84.690797	84.690797	1.407628	3.316434	2.830000	0.093790	0.055632	-53.435664
54.844166	0.008314	0.109119	0.109435	87.222947	48.148905	0.547265	84.298480	84.298480	84.298480	1.391109	3.337803	2.830000	0.095836	0.058776	-54.819211
55.634170	0.008554	0.110676	0.111006	87.344231	45.662242	0.539333	83.905157	83.905157	83.905157	1.374968	3.355742	2.830000	0.098023	0.061977	-56.022103
56.435554	0.008802	0.112256	0.112600	87.465177	43.386759	0.531496	83.510771	83.510771	83.510771	1.359195	3.370414	2.830000	0.100353	0.065227	-57.068073
57.248482	0.009056	0.113857	0.114217	87.585784	41.300804	0.523753	83.115267	83.115267	83.115267	1.343780	3.381992	2.830000	0.102825	0.068522	-57.977221
58.073119	0.009318	0.115481	0.115856	87.706049	39.384715	0.516103	82.718590	82.718590	82.718590	1.328712	3.390657	2.830000	0.105442	0.071855	-58.766596
58.909635	0.009588	0.117127	0.117519	87.825970	37.620849	0.508545	82.320686	82.320686	82.320686	1.313983	3.396598	2.830000	0.108205	0.075224	-59.450683
59.758201	0.009865	0.118797	0.119206	87.945543	35.993492	0.501079	81.921499	81.921499	81.921499	1.299582	3.400003	2.830000	0.111114	0.078625	-60.041823
60.618990	0.010150	0.120490	0.120916	88.064766	34.488708	0.493703	81.520975	81.520975	81.520975	1.285500	3.401061	2.830000	0.114171	0.082056	-60.550569
61.492178	0.010444	0.122206	0.122651	88.183635	33.094167	0.486416	81.119059	81.119059	81.119059	1.271729	3.399957	2.830000	0.117377	0.085514	-60.985971
62.377944	0.010746	0.123946	0.124411	88.302148	31.798968	0.479218	80.715697	80.715697	80.715697	1.258258	3.396875	2.830000	0.120734	0.088997	-61.355820
63.276469	0.011056	0.125710	0.126196	88.420299	30.593477	0.472108	80.310834	80.310834	80.310834	1.245078	3.391991	2.830000	0.124242	0.092503	-61.666847
64.187937	0.011376	0.127499	0.128006	88.538087	29.469171	0.465084	79.904417	79.904417	79.904417	1.232183	3.385476	2.830000	0.127904	0.096033	-61.924890
65.112534	0.011705	0.129313	0.129842	88.655506	28.418501	0.458146	79.496392	79.496392	79.496392	1.219561	3.377492	2.830000	0.131720	0.099583	-62.135025
66.050449	0.012043	0.131152	0.131704	88.772552	27.434769	0.451293	79.086707	79.086707	79.086707	1.207206	3.368193	2.830000	0.135691	0.103154	-62.301689
67.001875	0.012391	0.133016	0.133592	88.889221	26.512025	0.444524	78.675307	78.675307	78.675307	1.195109	3.357726	2.830000	0.139821	0.106744	-62.428766
67.967006	0.012749	0.134906	0.135507	89.005509	25.644968	0.437838	78.262140	78.262140	78.262140	1.183262	3.346227	2.830000	0.144109	0.110353	-62.519670
68.946038	0.013117	0.136822	0.137450	89.121409	24.828869	0.431234	77.847154	77.847154	77.847154	1.171657	3.333825	2.830000	0.148557	0.113980	-62.577413
69.939174	0.013496	0.138765	0.139420	89.236918	24.059502	0.424711	77.430297	77.430297	77.430297	1.160287	3.320639	2.830000	0.153167	0.117625	-62.604656
70.946615	0.013886	0.140734	0.141417	89.352030	23.333076	0.418269	77.011519	77.011519	77.011519	1.149143	3.306778	2.830000	0.157940	0.121287	-62.603761
71.968567	0.014287	0.142730	0.143444	89.466739	22.646190	0.411906	76.590767	76.590767	76.590767	1.138218	3.292345	2.830000	0.162878	0.124966	-62.576826
73.005241	0.014700	0.144754	0.145499	89.581039	21.995782	0.405621	76.167992	76.167992	76.167992	1.127505	3.277434	2.830000	0.167983	0.128661	-62.525725
74.056847	0.015124	0.146806	0.147583	89.694925	21.379090	0.399414	75.743143	75.743143	75.743143	1.116997	3.262131	2.830000	0.173255	0.132372	-62.452130
75.123601	0.015560	0.148885	0.149696	89.808391	20.793620	0.393284	75.316172	75.316172	75.316172	1.106687	3.246512	2.830000	0.178697	0.136099	-62.357540
76.205721	0.016010	0.150993	0.151840	89.921430	20.237111	0.387230	74.887029	74.887029	74.887029	1.096567	3.230651	2.830000	0.184309	0.139842	-62.243301
77.303429	0.016472	0.153130	0.154013	90.034035	19.707515	0.381251	74.455667	74.455667	74.455667	1.086632	3.214610	2.830000	0.190095	0.143600	-62.110626
78.416948	0.016947	0.155296	0.156218	90.146201	19.202967	0.375346	74.022039	74.022039	74.022039	1.076875	3.198450	2.830000	0.196054	0.147373	-61.960607
79.546508	0.017436	0.157491	0.158454	90.257919	18.721770	0.369514	73.586097	73.586097	73.586097	1.067288	3.182220	2.830000	0.202188	0.151161	-61.794231
80.692338	0.017938	0.159717	0.160721	90.369183	18.262375	0.363754	73.147795	73.147795	73.147795	1.057867	3.165970	2.830000	0.208500	0.154963	-61.612392
81.854673	0.018456	0.161972	0.163020	90.479984	17.823368	0.358067	72.707089	72.707089	72.707089	1.048604	3.149741	2.830000	0.214990	0.158780	-61.415901
83.033751	0.018988	0.164258	0.165352	90.590317	17.403453	0.352450	72.263934	72.263934	72.263934	1.039493	3.133570	2.830000	0.221660	0.162611	-61.205495
84.229813	0.019535	0.166574	0.167716	90.700172	17.001439	0.346903	71.818286	71.818286	71.818286	1.030530	3.117490	2.830000	0.228511	0.166456	-60.981845
85.443104	0.020098	0.168922	0.170114	90.809542	16.616237	0.341425	71.370102	71.370102	71.370102	1.021708	3.101530	2.830000	0.235544	0.170315	-60.745562
86.673872	0.020677	0.171302	0.172545	90.918418	16.246841	0.336015	70.919342	70.919342	70.919342	1.013021	3.085716	2.830000	0.242762	0.174188	-60.497205
87.922369	0.021273	0.173713	0.175011	91.026793	15.892326	0.330673	70.465964	70.465964	70.465964	1.004463	3.070071	2.830000	0.250164	0.178073	-60.237283
89.188849	0.021886	0.176157	0.177511	91.134657	15.551837	0.325398	70.009927	70.009927	70.009927	0.996031	3.054614	2.830000	0.257753	0.181972	-59.966266
90.473572	0.022516	0.178634	0.180047	91.242002	15.224586	0.320189	69.551194	69.551194	69.551194	0.987718	3.039361	2.830000	0.265529	0.185884	-59.684581
91.776802	0.023164	0.181143	0.182618	91.348818	14.909841	0.315045	69.089726	69.089726	69.089726	0.979519	3.024326	2.830000	0.273494	0.189808	-59.392623
93.098803	0.023831	0.183686	0.185225	91.455096	14.606926	0.309965	68.625487	68.625487	68.625487	0.971429	3.009522	2.830000	0.281648	0.193744	-59.090754
94.439848	0.024517	0.186262	0.187869	91.560828	14.315213	0.304949	68.158441	68.158441	68.158441	0.963443	2.994959	2.830000	0.289992	0.197692	-58.779309
95.800210	0.025222	0.188873	0.190550	91.666003	14.034118	0.299996	67.688554	67.688554	67.688554	0.955557	2.980644	2.830000	0.298528	0.201651	-58.458596
97.180167	0.025948	0.191518	0.193268	91.770611	13.763099	0.295106	67.215792	67.215792	67.215792	0.947766	2.966584	2.830000	0.307255	0.205622	-58.128900
98.580001	0.026694	0.194198	0.196024	91.874644	13.501651	0.290276	66.740123	66.740123	66.740123	0.940065	2.952785	2.830000	0.316175	0.209604	-57.790483
100.000000	0.027461	0.196913	0.198819	91.978089	13.249302	0.285508	66.261517	66.261517	66.261517	0.932450	2.939250	2.830000	0.325287	0.213596	-57.443590
101.440453	0.028251	0.199663	0.201652	92.080938	13.005612	0.280800	65.779944	65.779944	65.779944	0.924918	2.925981	2.830000	0.334593	0.217598	-57.088448
102.901655	0.029062	0.202450	0.204525	92.183180	12.770171	0.276151	65.295376	65.295376	65.295376	0.917462	2.912980	2.830000	0.344092	0.221610	-56.725268
104.383905	0.029897	0.205273	0.207438	92.284804	12.542594	0.271560	64.807786	64.807786	64.807786	0.910081	2.900248	2.830000	0.353785	0.225631	-56.354245
105.887506	0.030756	0.208132	0.210392	92.385798	12.322521	0.267028	64.317150	64.317150	64.317150	0.902769	2.887784	2.830000	0.363672	0.229661	-55.975562
107.412766	0.031639	0.211028	0.213387	92.486153	12.109616	0.262554	63.823442	63.823442	63.823442	0.895523	2.875588	2.830000	0.373752	0.233699	-55.589390
108.959997	0.032546	0.213962	0.216423	92.585858	11.903561	0.258136	63.326642	63.326642	63.326642	0.888339	2.863658	2.830000	0.384025	0.237744	-55.195889
110.529514	0.033480	0.216933	0.219502	92.684899	11.704060	0.253774	62.826727	62.826727	62.826727	0.881214	2.851991	2.830000	0.394490	0.241796	-54.795209
112.121640	0.034440	0.219942	0.222623	92.783268	11.510833	0.249468	62.323680	62.323680	62.323680	0.874144	2.840586	2.830000	0.405148	0.245855	-54.387490
113.736699	0.035428	0.222990	0.225787	92.880951	11.323618	0.245216	61.817481	61.817481	61.817481	0.867126	2.829438	2.830000	0.415996	0.249920	-53.972866
115.375023	0.036443	0.226076	0.228995	92.977937	11.142167	0.241019	61.308116	61.308116	61.308116	0.860157	2.818545	2.830000	0.427035	0.253990	-53.551461
117.036946	0.037487	0.229201	0.232247	93.074214	10.966247	0.236876	60.795569	60.795569	60.795569	0.853233	2.807902	2.830000	0.438262	0.258065	-53.123394
118.722808	0.038561	0.232366	0.235544	93.169771	10.795639	0.232785	60.279828	60.279828	60.279828	0.846352	2.797505	2.830000	0.449677	0.262143	-52.688777
120.432955	0.039665	0.235570	0.238886	93.264594	10.630134	0.228747	59.760882	59.760882	59.760882	0.839511	2.787351	2.830000	0.461277	0.266224	-52.247716
122.167735	0.040800	0.238814	0.242275	93.358673	10.469536	0.224762	59.238722	59.238722	59.238722	0.832706	2.777435	2.830000	0.473062	0.270308	-51.800312
123.927504	0.041967	0.242099	0.245709	93.451994	10.313661	0.220827	58.713340	58.713340	58.713340	0.825936	2.767751	2.830000	0.485028	0.274393	-51.346663
125.712621	0.043167	0.245424	0.249191	93.544545	10.162333	0.216944	58.184731	58.184731	58.184731	0.819198	2.758295	2.830000	0.497174	0.278479	-50.886861
127.523453	0.044401	0.248790	0.252721	93.636315	10.015385	0.213111	57.652890	57.652890	57.652890	0.812489	2.749063	2.830000	0.509496	0.282565	-50.420996
129.360368	0.045669	0.252197	0.256299	93.727289	9.872661	0.209328	57.117816	57.117816	57.117816	0.805807	2.740048	2.830000	0.521993	0.286650	-49.949153
131.223743	0.046973	0.255646	0.259925	93.817456	9.734012	0.205594	56.579508	56.579508	56.579508	0.799150	2.731247	2.830000	0.534662	0.290733	-49.471415
133.113960	0.048314	0.259136	0.263601	93.906802	9.599295	0.201909	56.037968	56.037968	56.037968	0.792516	2.722653	2.830000	0.547498	0.294813	-48.987863
135.031404	0.049692	0.262668	0.267327	93.995316	9.468376	0.198272	55.493200	55.493200	55.493200	0.785902	2.714262	2.830000	0.560498	0.298890	-48.498573
136.976468	0.051109	0.266243	0.271104	94.082984	9.341128	0.194683	54.945208	54.945208	54.945208	0.779307	2.706069	2.830000	0.573659	0.302961	-48.003622
138.949549	0.052566	0.269860	0.274932	94.169793	9.217430	0.191142	54.394001	54.394001	54.394001	0.772730	2.698067	2.830000	0.586977	0.307027	-47.503084
140.951052	0.054063	0.273519	0.278811	94.255730	9.097165	0.187648	53.839588	53.839588	53.839588	0.766168	2.690253	2.830000	0.600446	0.311086	-46.997032
142.981386	0.055602	0.277222	0.282743	94.340783	8.980225	0.184200	53.281980	53.281980	53.281980	0.759621	2.682621	2.830000	0.614064	0.315137	-46.485536
145.040966	0.057184	0.280968	0.286728	94.424938	8.866503	0.180798	52.721189	52.721189	52.721189	0.753085	2.675165	2.830000	0.627824	0.319179	-45.968666
147.130213	0.058810	0.284756	0.290766	94.508182	8.755901	0.177442	52.157232	52.157232	52.157232	0.746561	2.667881	2.830000	0.641721	0.323211	-45.446493
149.249555	0.060481	0.288589	0.294859	94.590504	8.648323	0.174131	51.590125	51.590125	51.590125	0.740048	2.660764	2.830000	0.655750	0.327231	-44.919083
151.399424	0.062199	0.292465	0.299006	94.671888	8.543679	0.170865	51.019886	51.019886	51.019886	0.733543	2.653808	2.830000	0.669906	0.331239	-44.386505
153.580262	0.063965	0.296385	0.303209	94.752323	8.441882	0.167643	50.446538	50.446538	50.446538	0.727046	2.647008	2.830000	0.684182	0.335233	-43.848825
155.792513	0.065779	0.300349	0.307467	94.831796	8.342849	0.164465	49.870102	49.870102	49.870102	0.720556	2.640361	2.830000	0.698571	0.339213	-43.306111
158.036631	0.067644	0.304356	0.311783	94.910293	8.246500	0.161331	49.290603	49.290603	49.290603	0.714072	2.633860	2.830000	0.713068	0.343176	-42.758430
160.313075	0.069560	0.308408	0.316155	94.987802	8.152761	0.158240	48.708068	48.708068	48.708068	0.707594	2.627501	2.830000	0.727665	0.347122	-42.205847
162.622309	0.071529	0.312504	0.320586	95.064309	8.061559	0.155192	48.122525	48.122525	48.122525	0.701121	2.621279	2.830000	0.742356	0.351049	-41.648430
164.964807	0.073552	0.316644	0.325074	95.139803	7.972824	0.152186	47.534005	47.534005	47.534005	0.694652	2.615190	2.830000	0.757132	0.354956	-41.086245
167.341048	0.075632	0.320828	0.329622	95.214270	7.886491	0.149222	46.942539	46.942539	46.942539	0.688188	2.609229	2.830000	0.771986	0.358841	-40.519358
169.751517	0.077768	0.325057	0.334230	95.287698	7.802495	0.146301	46.348161	46.348161	46.348161	0.681727	2.603391	2.830000	0.786910	0.362704	-39.947837
172.196708	0.079962	0.329329	0.338898	95.360075	7.720776	0.143420	45.750906	45.750906	45.750906	0.675270	2.597672	2.830000	0.801895	0.366543	-39.371748
174.677121	0.082217	0.333646	0.343626	95.431386	7.641276	0.140581	45.150813	45.150813	45.150813	0.668817	2.592068	2.830000	0.816933	0.370357	-38.791160
177.193263	0.084534	0.338006	0.348416	95.501621	7.563938	0.137782	44.547920	44.547920	44.547920	0.662366	2.586573	2.830000	0.832016	0.374144	-38.206139
179.745648	0.086913	0.342410	0.353269	95.570768	7.488708	0.135024	43.942268	43.942268	43.942268	0.655920	2.581184	2.830000	0.847134	0.377902	-37.616756
182.334800	0.089358	0.346858	0.358183	95.638812	7.415535	0.132306	43.333899	43.333899	43.333899	0.649477	2.575897	2.830000	0.862278	0.381631	-37.023077
184.961247	0.091869	0.351349	0.363162	95.705744	7.344370	0.129627	42.722857	42.722857	42.722857	0.643038	2.570707	2.830000	0.877437	0.385329	-36.425173
187.625527	0.094448	0.355884	0.368204	95.771550	7.275164	0.126988	42.109187	42.109187	42.109187	0.636603	2.565610	2.830000	0.892604	0.388995	-35.823113
190.328185	0.097097	0.360462	0.373310	95.836220	7.207872	0.124388	41.492937	41.492937	41.492937	0.630172	2.560603	2.830000	0.907766	0.392626	-35.216967
193.069773	0.099817	0.365082	0.378481	95.899740	7.142450	0.121827	40.874153	40.874153	40.874153	0.623747	2.555680	2.830000	0.922915	0.396223	-34.606806
195.850852	0.102611	0.369744	0.383718	95.962100	7.078855	0.119304	40.252887	40.252887	40.252887	0.617327	2.550839	2.830000	0.938040	0.399782	-33.992701
198.671992	0.105480	0.374448	0.389021	96.023288	7.017047	0.116820	39.629189	39.629189	39.629189	0.610913	2.546074	2.830000	0.953130	0.403304	-33.374724
201.533769	0.108426	0.379194	0.394391	96.083294	6.956986	0.114373	39.003111	39.003111	39.003111	0.604506	2.541384	2.830000	0.968174	0.406785	-32.752947
204.436768	0.111451	0.383981	0.399828	96.142105	6.898635	0.111964	38.374706	38.374706	38.374706	0.598107	2.536762	2.830000	0.983162	0.410226	-32.127443
207.381584	0.114556	0.388808	0.405333	96.199711	6.841957	0.109592	37.744030	37.744030	37.744030	0.591716	2.532207	2.830000	0.998082	0.413624	-31.498285
210.368818	0.117744	0.393675	0.410906	96.256100	6.786918	0.107258	37.111137	37.111137	37.111137	0.585334	2.527713	2.830000	1.012923	0.416979	-30.865547
213.399082	0.121017	0.398581	0.416548	96.311263	6.733483	0.104959	36.476084	36.476084	36.476084	0.578962	2.523278	2.830000	1.027675	0.420288	-30.229302
216.472995	0.124377	0.403526	0.422259	96.365189	6.681620	0.102698	35.838929	35.838929	35.838929	0.572600	2.518897	2.830000	1.042324	0.423550	-29.589626
219.591187	0.127825	0.408508	0.428040	96.417867	6.631298	0.100472	35.199731	35.199731	35.199731	0.566251	2.514568	2.830000	1.056861	0.426764	-28.946592
222.754295	0.131364	0.413527	0.433891	96.469287	6.582486	0.098282	34.558547	34.558547	34.558547	0.559915	2.510286	2.830000	1.071272	0.429929	-28.300277
225.962966	0.134996	0.418583	0.439813	96.519439	6.535157	0.096128	33.915439	33.915439	33.915439	0.553593	2.506047	2.830000	1.085548	0.433042	-27.650755
229.217857	0.138724	0.423673	0.445806	96.568314	6.489280	0.094008	33.270467	33.270467	33.270467	0.547285	2.501850	2.830000	1.099676	0.436104	-26.998103
232.519632	0.142548	0.428797	0.451871	96.615901	6.444830	0.091924	32.623692	32.623692	32.623692	0.540994	2.497689	2.830000	1.113643	0.439112	-26.342397
235.868968	0.146472	0.433955	0.458007	96.662190	6.401781	0.089874	31.975175	31.975175	31.975175	0.534721	2.493561	2.830000	1.127440	0.442064	-25.683714
239.266550	0.150497	0.439144	0.464216	96.707173	6.360107	0.087859	31.324979	31.324979	31.324979	0.528465	2.489463	2.830000	1.141053	0.444961	-25.022129
242.713072	0.154627	0.444363	0.470498	96.750840	6.319784	0.085878	30.673167	30.673167	30.673167	0.522230	2.485392	2.830000	1.154472	0.447800	-24.357720
246.209240	0.158862	0.449612	0.476853	96.793182	6.280788	0.083930	30.019800	30.019800	30.019800	0.516015	2.481344	2.830000	1.167685	0.450580	-23.690563
249.755769	0.163207	0.454889	0.483281	96.834189	6.243099	0.082016	29.364943	29.364943	29.364943	0.509822	2.477315	2.830000	1.180679	0.453301	-23.020736
253.353383	0.167662	0.460192	0.489782	96.873854	6.206693	0.080135	28.708658	28.708658	28.708658	0.503653	2.473303	2.830000	1.193445	0.455959	-22.348315
257.002820	0.172230	0.465519	0.496358	96.912166	6.171550	0.078287	28.051009	28.051009	28.051009	0.497508	2.469303	2.830000	1.205970	0.458556	-21.673377
260.704825	0.176914	0.470870	0.503008	96.949118	6.137649	0.076472	27.392058	27.392058	27.392058	0.491390	2.465313	2.830000	1.218244	0.461089	-20.996001
264.460155	0.181716	0.476241	0.509732	96.984702	6.104973	0.074688	26.731870	26.731870	26.731870	0.485298	2.461329	2.830000	1.230254	0.463557	-20.316262
268.269580	0.186639	0.481632	0.516530	97.018907	6.073501	0.072937	26.070508	26.070508	26.070508	0.479234	2.457347	2.830000	1.241992	0.465959	-19.634237
272.133877	0.191685	0.487041	0.523404	97.051727	6.043216	0.071217	25.408033	25.408033	25.408033	0.473200	2.453364	2.830000	1.253445	0.468294	-18.950004
276.053838	0.196855	0.492464	0.530352	97.083153	6.014101	0.069529	24.744510	24.744510	24.744510	0.467196	2.449377	2.830000	1.264603	0.470561	-18.263639
280.030263	0.202154	0.497901	0.537374	97.113177	5.986140	0.067871	24.080001	24.080001	24.080001	0.461225	2.445382	2.830000	1.275456	0.472759	-17.575219
284.063968	0.207583	0.503348	0.544472	97.141791	5.959315	0.066245	23.414567	23.414567	23.414567	0.455286	2.441376	2.830000	1.285993	0.474887	-16.884820
288.155776	0.213145	0.508803	0.551644	97.168986	5.933613	0.064649	22.748271	22.748271	22.748271	0.449382	2.437355	2.830000	1.296206	0.476944	-16.192518
292.306525	0.218842	0.514264	0.558891	97.194755	5.909019	0.063082	22.081173	22.081173	22.081173	0.443513	2.433316	2.830000	1.306085	0.478929	-15.498389
296.517063	0.224677	0.519728	0.566213	97.219091	5.885518	0.061546	21.413334	21.413334	21.413334	0.437681	2.429255	2.830000	1.315619	0.480841	-14.802509
300.788252	0.230653	0.525192	0.573609	97.241984	5.863098	0.060039	20.744814	20.744814	20.744814	0.431886	2.425169	2.830000	1.324801	0.482680	-14.104954
305.120965	0.236771	0.530653	0.581079	97.263428	5.841745	0.058561	20.075673	20.075673	20.075673	0.426130	2.421054	2.830000	1.333622	0.484444	-13.405798
309.516090	0.243034	0.536108	0.588623	97.283414	5.821447	0.057112	19.405969	19.405969	19.405969	0.420414	2.416907	2.830000	1.342072	0.486133	-12.705116
313.974523	0.249445	0.541554	0.596241	97.301934	5.802192	0.055692	18.735761	18.735761	18.735761	0.414739	2.412723	2.830000	1.350145	0.487747	-12.002984
318.497179	0.256006	0.546987	0.603932	97.318982	5.783970	0.054299	18.065104	18.065104	18.065104	0.409105	2.408499	2.830000	1.357832	0.489283	-11.299474
323.084981	0.262719	0.552403	0.611695	97.334548	5.766770	0.052935	17.394056	17.394056	17.394056	0.403514	2.404232	2.830000	1.365126	0.490743	-10.594661
327.738869	0.269587	0.557800	0.619531	97.348625	5.750581	0.051597	16.722672	16.722672	16.722672	0.397967	2.399917	2.830000	1.372021	0.492124	-9.888619
332.459793	0.276612	0.563173	0.627438	97.361205	5.735394	0.050287	16.051007	16.051007	16.051007	0.392465	2.395551	2.830000	1.378509	0.493427	-9.181421
337.248720	0.283797	0.568518	0.635416	97.372281	5.721200	0.049004	15.379113	15.379113	15.379113	0.387008	2.391129	2.830000	1.384584	0.494651	-8.473139
342.106630	0.291143	0.573831	0.643464	97.381843	5.707991	0.047748	14.707043	14.707043	14.707043	0.381598	2.386649	2.830000	1.390241	0.495796	-7.763847
347.034515	0.298653	0.579107	0.651582	97.389884	5.695758	0.046517	14.034849	14.034849	14.034849	0.376235	2.382105	2.830000	1.395475	0.496861	-7.053617
352.033384	0.306329	0.584342	0.659768	97.396395	5.684495	0.045312	13.362581	13.362581	13.362581	0.370920	2.377493	2.830000	1.400279	0.497845	-6.342519
357.104260	0.314173	0.589532	0.668021	97.401369	5.674193	0.044133	12.690287	12.690287	12.690287	0.365653	2.372810	2.830000	1.404650	0.498749	-5.630627
362.248179	0.322187	0.594670	0.676341	97.404796	5.664846	0.042979	12.018017	12.018017	12.018017	0.360436	2.368051	2.830000	1.408584	0.499572	-4.918012
367.466194	0.330372	0.599753	0.684726	97.406668	5.656449	0.041849	11.345815	11.345815	11.345815	0.355269	2.363212	2.830000	1.412077	0.500314	-4.204744
372.759372	0.338731	0.604774	0.693174	97.406976	5.648995	0.040744	10.673728	10.673728	10.673728	0.350153	2.358288	2.830000	1.415126	0.500974	-3.490894
378.128796	0.347265	0.609729	0.701686	97.405711	5.642480	0.039663	10.001800	10.001800	10.001800	0.345088	2.353275	2.830000	1.417727	0.501553	-2.776532
383.575563	0.355976	0.614611	0.710258	97.402863	5.636898	0.038606	9.330073	9.330073	9.330073	0.340076	2.348168	2.830000	1.419879	0.502049	-2.061730
389.100789	0.364865	0.619415	0.718889	97.398424	5.632246	0.037572	8.658589	8.658589	8.658589	0.335115	2.342963	2.830000	1.421580	0.502464	-1.346556
394.705603	0.373933	0.624135	0.727578	97.392384	5.628519	0.036561	7.987387	7.987387	7.987387	0.330208	2.337654	2.830000	1.422828	0.502797	-0.631081
400.391152	0.383181	0.628764	0.736323	97.384732	5.625714	0.035573	7.316506	7.316506	7.316506	0.325354	2.332238	2.830000	1.423622	0.503047	0.084626
406.158599	0.392611	0.633295	0.745122	97.375459	5.623828	0.034608	6.645983	6.645983	6.645983	0.320555	2.326707	2.830000	1.423962	0.503216	0.800495
412.009123	0.402223	0.637723	0.753972	97.364553	5.622859	0.033664	5.975853	5.975853	5.975853	0.315809	2.321059	2.830000	1.423848	0.503303	1.516458
417.943921	0.412017	0.642040	0.762872	97.352006	5.622804	0.032742	5.306150	5.306150	5.306150	0.311119	2.315286	2.830000	1.423280	0.503308	2.232446
423.964207	0.421995	0.646239	0.771819	97.337804	5.623661	0.031841	4.636906	4.636906	4.636906	0.306484	2.309385	2.830000	1.422258	0.503231	2.948389
430.071212	0.432155	0.650313	0.780810	97.321937	5.625430	0.030961	3.968152	3.968152	3.968152	0.301904	2.303349	2.830000	1.420785	0.503073	3.664219
436.266186	0.442499	0.654254	0.789844	97.304394	5.628110	0.030101	3.299915	3.299915	3.299915	0.297380	2.297172	2.830000	1.418862	0.502833	4.379867
442.550395	0.453025	0.658054	0.798916	97.285161	5.631699	0.029262	2.632223	2.632223	2.632223	0.292913	2.290850	2.830000	1.416491	0.502513	5.095265
448.925126	0.463734	0.661706	0.808025	97.264227	5.636198	0.028443	1.965101	1.965101	1.965101	0.288502	2.284375	2.830000	1.413675	0.502111	5.810345
455.391681	0.474624	0.665202	0.817166	97.241578	5.641608	0.027644	1.298572	1.298572	1.298572	0.284147	2.277743	2.830000	1.410417	0.501630	6.525037
461.951385	0.485693	0.668532	0.826337	97.217202	5.647929	0.026863	0.632658	0.632658	0.632658	0.279850	2.270946	2.830000	1.406721	0.501069	7.239275
468.605578	0.496942	0.671689	0.835534	97.191084	5.655161	0.026102	-0.032623	-0.032623	-0.032623	0.275610	2.263978	2.830000	1.402589	0.500428	7.952989
475.355621	0.508367	0.674665	0.844754	97.163210	5.663308	0.025359	-0.697253	-0.697253	-0.697253	0.271427	2.256833	2.830000	1.398028	0.499708	8.666112
482.202895	0.519966	0.677449	0.853992	97.133565	5.672369	0.024634	-1.361216	-1.361216	-1.361216	0.267302	2.249504	2.830000	1.393042	0.498910	9.378575
489.148802	0.531738	0.680033	0.863244	97.102134	5.682349	0.023927	-2.024501	-2.024501	-2.024501	0.263234	2.241984	2.830000	1.387635	0.498033	10.090311
496.194760	0.543678	0.682408	0.872506	97.068900	5.693249	0.023238	-2.687096	-2.687096	-2.687096	0.259224	2.234266	2.830000	1.381813	0.497080	10.801251
503.342213	0.555784	0.684565	0.881774	97.033848	5.705072	0.022566	-3.348993	-3.348993	-3.348993	0.255272	2.226344	2.830000	1.375584	0.496050	11.511327
510.592621	0.568052	0.686494	0.891043	96.996960	5.717822	0.021911	-4.010186	-4.010186	-4.010186	0.251379	2.218209	2.830000	1.368951	0.494944	12.220472
517.947468	0.580477	0.688186	0.900308	96.958219	5.731503	0.021272	-4.670670	-4.670670	-4.670670	0.247543	2.209853	2.830000	1.361924	0.493762	12.928617
525.408258	0.593055	0.689631	0.909563	96.917605	5.746119	0.020650	-5.330444	-5.330444	-5.330444	0.243766	2.201270	2.830000	1.354508	0.492506	13.635695
532.976517	0.605781	0.690819	0.918804	96.875101	5.761675	0.020043	-5.989510	-5.989510	-5.989510	0.240047	2.192452	2.830000	1.346711	0.491177	14.341638
540.653794	0.618648	0.691740	0.928024	96.830685	5.778174	0.019452	-6.647870	-6.647870	-6.647870	0.236386	2.183389	2.830000	1.338541	0.489774	15.046377
548.441658	0.631651	0.692385	0.937219	96.784337	5.795624	0.018877	-7.305532	-7.305532	-7.305532	0.232783	2.174075	2.830000	1.330006	0.488299	15.749845
556.341702	0.644782	0.692743	0.946381	96.736036	5.814028	0.018316	-7.962504	-7.962504	-7.962504	0.229238	2.164500	2.830000	1.321114	0.486754	16.451975
564.355543	0.658035	0.692805	0.955505	96.685759	5.833394	0.017770	-8.618798	-8.618798	-8.618798	0.225752	2.154656	2.830000	1.311875	0.485138	17.152699
572.484820	0.671401	0.692562	0.964583	96.633483	5.853728	0.017238	-9.274428	-9.274428	-9.274428	0.222324	2.144534	2.830000	1.302296	0.483453	17.851949
580.731195	0.684871	0.692002	0.973609	96.579184	5.875037	0.016721	-9.929410	-9.929410	-9.929410	0.218954	2.134126	2.830000	1.292388	0.481699	18.549658
589.096355	0.698437	0.691116	0.982576	96.522837	5.897327	0.016217	-10.583766	-10.583766	-10.583766	0.215641	2.123422	2.830000	1.282159	0.479878	19.245759
597.582011	0.712087	0.689896	0.991476	96.464415	5.920606	0.015726	-11.237516	-11.237516	-11.237516	0.212387	2.112412	2.830000	1.271620	0.477992	19.940184
606.189899	0.725813	0.688330	1.000302	96.403892	5.944883	0.015249	-11.890688	-11.890688	-11.890688	0.209189	2.101088	2.830000	1.260780	0.476040	20.632866
614.921780	0.739602	0.686411	1.009045	96.341239	5.970164	0.014785	-12.543308	-12.543308	-12.543308	0.206050	2.089440	2.830000	1.249650	0.474024	21.323740
623.779440	0.753442	0.684129	1.017697	96.276426	5.996460	0.014333	-13.195409	-13.195409	-13.195409	0.202967	2.077458	2.830000	1.238240	0.471945	22.012737
632.764690	0.767321	0.681475	1.026250	96.209423	6.023779	0.013894	-13.847023	-13.847023	-13.847023	0.199941	2.065132	2.830000	1.226560	0.469805	22.699792
641.879368	0.781224	0.678440	1.034695	96.140198	6.052131	0.013466	-14.498188	-14.498188	-14.498188	0.196972	2.052453	2.830000	1.214621	0.467604	23.384838
651.125339	0.795139	0.675018	1.043022	96.068718	6.081524	0.013050	-15.148943	-15.148943	-15.148943	0.194058	2.039411	2.830000	1.202434	0.465344	24.067810
660.504493	0.809049	0.671200	1.051223	95.994948	6.111971	0.012646	-15.799329	-15.799329	-15.799329	0.191201	2.025996	2.830000	1.190010	0.463026	24.748642
670.018750	0.822940	0.666978	1.059288	95.918853	6.143480	0.012253	-16.449390	-16.449390	-16.449390	0.188398	2.012197	2.830000	1.177360	0.460651	25.427268
679.670056	0.836794	0.662347	1.067206	95.840394	6.176063	0.011871	-17.099174	-17.099174	-17.099174	0.185651	1.998004	2.830000	1.164494	0.458221	26.103623
689.460384	0.850594	0.657301	1.074967	95.759534	6.209731	0.011500	-17.748730	-17.748730	-17.748730	0.182957	1.983408	2.830000	1.151425	0.455736	26.777643
699.391737	0.864323	0.651833	1.082561	95.676232	6.244496	0.011139	-18.398108	-18.398108	-18.398108	0.180317	1.968399	2.830000	1.138163	0.453199	27.449262
709.466146	0.877961	0.645939	1.089978	95.590446	6.280370	0.010788	-19.047362	-19.047362	-19.047362	0.177730	1.952967	2.830000	1.124719	0.450610	28.118417
719.685673	0.891488	0.639615	1.097205	95.502132	6.317367	0.010447	-19.696545	-19.696545	-19.696545	0.175195	1.937102	2.830000	1.111105	0.447971	28.785044
730.052407	0.904886	0.632859	1.104232	95.411246	6.355497	0.010115	-20.345714	-20.345714	-20.345714	0.172711	1.920794	2.830000	1.097333	0.445284	29.449078
740.568469	0.918132	0.625668	1.111048	95.317741	6.394776	0.009794	-20.994926	-20.994926	-20.994926	0.170277	1.904035	2.830000	1.083412	0.442549	30.110457
751.236010	0.931206	0.618041	1.117639	95.221569	6.435217	0.009481	-21.644239	-21.644239	-21.644239	0.167893	1.886815	2.830000	1.069355	0.439768	30.769118
762.057212	0.944084	0.609977	1.123996	95.122678	6.476835	0.009177	-22.293711	-22.293711	-22.293711	0.165557	1.869126	2.830000	1.055173	0.436942	31.424997
773.034288	0.956744	0.601479	1.130104	95.021018	6.519643	0.008882	-22.943400	-22.943400	-22.943400	0.163267	1.850959	2.830000	1.040877	0.434073	32.078032
784.169484	0.969162	0.592548	1.135952	94.916535	6.563658	0.008596	-23.593363	-23.593363	-23.593363	0.161024	1.832307	2.830000	1.026478	0.431162	32.728160
795.465078	0.981315	0.583187	1.141528	94.809173	6.608894	0.008318	-24.243658	-24.243658	-24.243658	0.158825	1.813163	2.830000	1.011987	0.428211	33.375320
806.923378	0.993178	0.573403	1.146818	94.698875	6.655368	0.008048	-24.894338	-24.894338	-24.894338	0.156669	1.793521	2.830000	0.997414	0.425221	34.019449
818.546731	1.004726	0.563201	1.151811	94.585583	6.703096	0.007785	-25.545459	-25.545459	-25.545459	0.154555	1.773373	2.830000	0.982771	0.422193	34.660486
830.337512	1.015934	0.552589	1.156493	94.469237	6.752097	0.007531	-26.197068	-26.197068	-26.197068	0.152480	1.752717	2.830000	0.968069	0.419129	35.298368
842.298134	1.026776	0.541577	1.160851	94.349775	6.802386	0.007284	-26.849213	-26.849213	-26.849213	0.150444	1.731547	2.830000	0.953318	0.416031	35.933033
854.431043	1.037228	0.530175	1.164873	94.227132	6.853982	0.007044	-27.501937	-27.501937	-27.501937	0.148443	1.709861	2.830000	0.938527	0.412899	36.564420
866.738721	1.047264	0.518399	1.168545	94.101246	6.906903	0.006811	-28.155276	-28.155276	-28.155276	0.146477	1.687656	2.830000	0.923708	0.409735	37.192466
879.223685	1.056857	0.506260	1.171856	93.972049	6.961169	0.006585	-28.809262	-28.809262	-28.809262	0.144543	1.664933	2.830000	0.908871	0.406541	37.817109
891.888489	1.065984	0.493778	1.174793	93.839475	7.016799	0.006366	-29.463920	-29.463920	-29.463920	0.142639	1.641693	2.830000	0.894025	0.403318	38.438287
904.735724	1.074618	0.480970	1.177343	93.703455	7.073813	0.006153	-30.119266	-30.119266	-30.119266	0.140762	1.617937	2.830000	0.879181	0.400067	39.055936
917.768017	1.082736	0.467857	1.179494	93.563922	7.132231	0.005947	-30.775308	-30.775308	-30.775308	0.138911	1.593670	2.830000	0.864347	0.396790	39.669994
930.988035	1.090313	0.454462	1.181236	93.420807	7.192074	0.005746	-31.432045	-31.432045	-31.432045	0.137083	1.568898	2.830000	0.849533	0.393489	40.280396
944.398480	1.097326	0.440808	1.182555	93.274040	7.253364	0.005552	-32.089465	-32.089465	-32.089465	0.135275	1.543628	2.830000	0.834749	0.390164	40.887078
958.002097	1.103754	0.426925	1.183443	93.123553	7.316122	0.005364	-32.747544	-32.747544	-32.747544	0.133484	1.517869	2.830000	0.820003	0.386817	41.489976
971.801667	1.109574	0.412839	1.183888	92.969277	7.380371	0.005181	-33.406243	-33.406243	-33.406243	0.131708	1.491635	2.830000	0.805304	0.383450	42.089023
985.800014	1.114768	0.398582	1.183881	92.811146	7.446134	0.005003	-34.065513	-34.065513	-34.065513	0.129944	1.464938	2.830000	0.790660	0.380063	42.684154
1000.000000	1.119316	0.384188	1.183414	92.649094	7.513434	0.004831	-34.725287	-34.725287	-34.725287	0.128189	1.437796	2.830000	0.776080	0.376659	43.275302
1014.404530	1.123203	0.369691	1.182479	92.483057	7.582294	0.004664	-35.385483	-35.385483	-35.385483	0.126441	1.410227	2.830000	0.761572	0.373238	43.862398
1029.016551	1.126414	0.355129	1.181069	92.312977	7.652738	0.004502	-36.046002	-36.046002	-36.046002	0.124696	1.382253	2.830000	0.747144	0.369802	44.445374
1043.839051	1.128935	0.340541	1.179179	92.138795	7.724792	0.004346	-36.706726	-36.706726	-36.706726	0.122951	1.353898	2.830000	0.732804	0.366353	45.024160
1058.875063	1.130758	0.325967	1.176804	91.960459	7.798479	0.004193	-37.367518	-37.367518	-37.367518	0.121204	1.325189	2.830000	0.718559	0.362891	45.598686
1074.127661	1.131874	0.311450	1.173942	91.777921	7.873824	0.004046	-38.028224	-38.028224	-38.028224	0.119452	1.296157	2.830000	0.704416	0.359419	46.168882
1089.599965	1.132278	0.297036	1.170591	91.591141	7.950854	0.003903	-38.688665	-38.688665	-38.688665	0.117692	1.266833	2.830000	0.690381	0.355937	46.734674
1105.295141	1.131969	0.282768	1.166752	91.400083	8.029593	0.003764	-39.348643	-39.348643	-39.348643	0.115921	1.237253	2.830000	0.676463	0.352446	47.295992
1121.216399	1.130948	0.268695	1.162429	91.204722	8.110067	0.003630	-40.007940	-40.007940	-40.007940	0.114136	1.207455	2.830000	0.662667	0.348949	47.852761
1137.366994	1.129220	0.254864	1.157624	91.005041	8.192302	0.003500	-40.666314	-40.666314	-40.666314	0.112336	1.177480	2.830000	0.649000	0.345446	48.404909
1153.750232	1.126794	0.241325	1.152346	90.801033	8.276324	0.003374	-41.323500	-41.323500	-41.323500	0.110517	1.147372	2.830000	0.635467	0.341939	48.952361
1170.369462	1.123682	0.228126	1.146604	90.592705	8.362159	0.003251	-41.979213	-41.979213	-41.979213	0.108679	1.117177	2.830000	0.622075	0.338429	49.495045
1187.228084	1.119900	0.215317	1.140411	90.380076	8.449832	0.003133	-42.633146	-42.633146	-42.633146	0.106818	1.086943	2.830000	0.608829	0.334918	50.032887
1204.329547	1.115470	0.202949	1.133782	90.163179	8.539370	0.003018	-43.284971	-43.284971	-43.284971	0.104933	1.056722	2.830000	0.595733	0.331406	50.565815
1221.677349	1.110417	0.191069	1.126736	89.942066	8.630799	0.002907	-43.934338	-43.934338	-43.934338	0.103024	1.026565	2.830000	0.582793	0.327895	51.093756
1239.275037	1.104770	0.179726	1.119293	89.716804	8.724143	0.002800	-44.580878	-44.580878	-44.580878	0.101088	0.996527	2.830000	0.570014	0.324387	51.616640
1257.126212	1.098563	0.168967	1.111481	89.487482	8.819429	0.002696	-45.224207	-45.224207	-45.224207	0.099126	0.966663	2.830000	0.557400	0.320882	52.134398
1275.234525	1.091835	0.158838	1.103328	89.254208	8.916681	0.002595	-45.863921	-45.863921	-45.863921	0.097136	0.937031	2.830000	0.544956	0.317383	52.646961
1293.603680	1.084630	0.149381	1.094868	89.017114	9.015925	0.002497	-46.499602	-46.499602	-46.499602	0.095119	0.907687	2.830000	0.532684	0.313889	53.154265
1312.237433	1.076995	0.140636	1.086139	88.776357	9.117183	0.002403	-47.130823	-47.130823	-47.130823	0.093076	0.878689	2.830000	0.520589	0.310403	53.656248
1331.139597	1.068984	0.132642	1.077182	88.532117	9.220482	0.002312	-47.757142	-47.757142	-47.757142	0.091007	0.850095	2.830000	0.508673	0.306925	54.152849
1350.314038	1.060652	0.125432	1.068043	88.284603	9.325843	0.002224	-48.378115	-48.378115	-48.378115	0.088913	0.821959	2.830000	0.496940	0.303458	54.644015
1369.764677	1.052062	0.119035	1.058774	88.034050	9.433291	0.002139	-48.993290	-48.993290	-48.993290	0.086797	0.794339	2.830000	0.485393	0.300001	55.129691
1389.495494	1.043277	0.113475	1.049431	87.780721	9.542847	0.002056	-49.602218	-49.602218	-49.602218	0.084659	0.767286	2.830000	0.474034	0.296557	55.609833
1409.510524	1.034368	0.108772	1.040071	87.524911	9.654534	0.001977	-50.204449	-50.204449	-50.204449	0.082504	0.740853	2.830000	0.462864	0.293127	56.084396
1429.813862	1.025405	0.104939	1.030760	87.266939	9.768374	0.001900	-50.799543	-50.799543	-50.799543	0.080333	0.715088	2.830000	0.451886	0.289710	56.553343
1450.409659	1.016463	0.101983	1.021566	87.007154	9.884387	0.001826	-51.387068	-51.387068	-51.387068	0.078151	0.690037	2.830000	0.441101	0.286310	57.016644
1471.302129	1.007619	0.099904	1.012559	86.745930	10.002595	0.001754	-51.966607	-51.966607	-51.966607	0.075960	0.665740	2.830000	0.430509	0.282927	57.474271
1492.495545	0.998950	0.098695	1.003814	86.483668	10.123018	0.001685	-52.537761	-52.537761	-52.537761	0.073765	0.642236	2.830000	0.420113	0.279561	57.926205
1513.994242	0.990538	0.098340	0.995407	86.220786	10.245675	0.001618	-53.100155	-53.100155	-53.100155	0.071571	0.619557	2.830000	0.409913	0.276214	58.372434
1535.802619	0.982459	0.098818	0.987416	85.957722	10.370587	0.001554	-53.653439	-53.653439	-53.653439	0.069382	0.597732	2.830000	0.399908	0.272887	58.812949
1557.925134	0.974794	0.100095	0.979920	85.694928	10.497772	0.001492	-54.197294	-54.197294	-54.197294	0.067202	0.576784	2.830000	0.390099	0.269581	59.247751
1580.366314	0.967619	0.102133	0.972994	85.432860	10.627250	0.001433	-54.731435	-54.731435	-54.731435	0.065038	0.556728	2.830000	0.380485	0.266297	59.676846
1603.130749	0.961007	0.104883	0.966714	85.171979	10.759040	0.001375	-55.255616	-55.255616	-55.255616	0.062895	0.537578	2.830000	0.371065	0.263035	60.100248
1626.223094	0.955030	0.108287	0.961150	84.912736	10.893160	0.001320	-55.769632	-55.769632	-55.769632	0.060777	0.519339	2.830000	0.361840	0.259796	60.517977
1649.648074	0.949753	0.112280	0.956367	84.655568	11.029630	0.001267	-56.273323	-56.273323	-56.273323	0.058691	0.502011	2.830000	0.352808	0.256582	60.930059
1673.410480	0.945236	0.116787	0.952424	84.400890	11.168468	0.001215	-56.766576	-56.766576	-56.766576	0.056641	0.485587	2.830000	0.343967	0.253392	61.336527
1697.515172	0.941532	0.121727	0.949368	84.149084	11.309695	0.001166	-57.249328	-57.249328	-57.249328	0.054634	0.470055	2.830000	0.335316	0.250228	61.737420
1721.967081	0.938685	0.127011	0.947239	83.900491	11.453328	0.001119	-57.721571	-57.721571	-57.721571	0.052674	0.455398	2.830000	0.326853	0.247090	62.132784
1746.771208	0.936730	0.132543	0.946061	83.655403	11.599390	0.001073	-58.183347	-58.183347	-58.183347	0.050767	0.441592	2.830000	0.318576	0.243978	62.522667
1771.932627	0.935693	0.138222	0.945847	83.414051	11.747900	0.001030	-58.634753	-58.634753	-58.634753	0.048917	0.428609	2.830000	0.310483	0.240894	62.907127
1797.456484	0.935587	0.143941	0.946595	83.176603	11.898879	0.000988	-59.075944	-59.075944	-59.075944	0.047128	0.416414	2.830000	0.302572	0.237838	63.286222
1823.348001	0.936414	0.149593	0.948287	82.943154	12.052350	0.000948	-59.507126	-59.507126	-59.507126	0.045406	0.404970	2.830000	0.294841	0.234809	63.660018
1849.612473	0.938161	0.155065	0.950889	82.713722	12.208335	0.000909	-59.928561	-59.928561	-59.928561	0.043753	0.394233	2.830000	0.287286	0.231809	64.028584
1876.255272	0.940803	0.160246	0.954353	82.488247	12.366857	0.000872	-60.340563	-60.340563	-60.340563	0.042173	0.384157	2.830000	0.279905	0.228837	64.391990
1903.281848	0.944301	0.165028	0.958613	82.266586	12.527942	0.000836	-60.743495	-60.743495	-60.743495	0.040669	0.374693	2.830000	0.272695	0.225895	64.750311
1930.697729	0.948602	0.169302	0.963591	82.048519	12.691615	0.000802	-61.137767	-61.137767	-61.137767	0.039243	0.365789	2.830000	0.265654	0.222982	65.103625
1958.508523	0.953636	0.172969	0.969195	81.833748	12.857902	0.000769	-61.523832	-61.523832	-61.523832	0.037895	0.357390	2.830000	0.258778	0.220098	65.452009
1986.719919	0.959322	0.175934	0.975321	81.621903	13.026833	0.000738	-61.902181	-61.902181	-61.902181	0.036628	0.349440	2.830000	0.252064	0.217244	65.795544
2015.337686	0.965564	0.178113	0.981854	81.412549	13.198436	0.000708	-62.273337	-62.273337	-62.273337	0.035441	0.341884	2.830000	0.245510	0.214419	66.134309
2044.367679	0.972254	0.179433	0.988673	81.205192	13.372742	0.000679	-62.637849	-62.637849	-62.637849	0.034333	0.334665	2.830000	0.239113	0.211625	66.468387
2073.815835	0.979272	0.179835	0.995648	80.999291	13.549782	0.000651	-62.996285	-62.996285	-62.996285	0.033303	0.327727	2.830000	0.232868	0.208859	66.797858
2103.688178	0.986490	0.179277	1.002648	80.794265	13.729591	0.000625	-63.349225	-63.349225	-63.349225	0.032350	0.321016	2.830000	0.226774	0.206124	67.122801
2133.990819	0.993770	0.177732	1.009538	80.589507	13.912203	0.000599	-63.697250	-63.697250	-63.697250	0.031470	0.314479	2.830000	0.220827	0.203419	67.443296
2164.729954	1.000971	0.175193	1.016187	80.384392	14.097654	0.000575	-64.040938	-64.040938	-64.040938	0.030659	0.308067	2.830000	0.215024	0.200743	67.759419
2195.911873	1.007948	0.171673	1.022464	80.178291	14.285982	0.000552	-64.380846	-64.380846	-64.380846	0.029913	0.301734	2.830000	0.209363	0.198096	68.071245
2227.542952	1.014557	0.167209	1.028243	79.970582	14.477226	0.000529	-64.717510	-64.717510	-64.717510	0.029228	0.295437	2.830000	0.203839	0.195479	68.378848
2259.629662	1.020656	0.161856	1.033410	79.760663	14.671426	0.000508	-65.051428	-65.051428	-65.051428	0.028597	0.289141	2.830000	0.198450	0.192892	68.682297
2292.178566	1.026112	0.155693	1.037856	79.547960	14.868624	0.000487	-65.383051	-65.383051	-65.383051	0.028014	0.282812	2.830000	0.193194	0.190334	68.981660
2325.196322	1.030801	0.148819	1.041488	79.331943	15.068862	0.000467	-65.712777	-65.712777	-65.712777	0.027473	0.276425	2.830000	0.188067	0.187804	69.277000
2358.689683	1.034614	0.141356	1.044226	79.112136	15.272186	0.000448	-66.040939	-66.040939	-66.040939	0.026966	0.269960	2.830000	0.183066	0.185304	69.568378
2392.665500	1.037460	0.133439	1.046007	78.888129	15.478641	0.000430	-66.367794	-66.367794	-66.367794	0.026485	0.263406	2.830000	0.178189	0.182833	69.855851
2427.130723	1.039269	0.125225	1.046786	78.659587	15.688272	0.000413	-66.693524	-66.693524	-66.693524	0.026024	0.256755	2.830000	0.173434	0.180390	70.139472
2462.092401	1.039994	0.116881	1.046541	78.426266	15.901127	0.000396	-67.018222	-67.018222	-67.018222	0.025574	0.250010	2.830000	0.168797	0.177975	70.419290
2497.557686	1.039617	0.108581	1.045272	78.188018	16.117254	0.000380	-67.341893	-67.341893	-67.341893	0.025129	0.243177	2.830000	0.164275	0.175588	70.695353
2533.533832	1.038149	0.100508	1.043003	77.944806	16.336701	0.000364	-67.664451	-67.664451	-67.664451	0.024681	0.236273	2.830000	0.159868	0.173230	70.967703
2570.028197	1.035630	0.092841	1.039783	77.696711	16.559518	0.000349	-67.985720	-67.985720	-67.985720	0.024225	0.229317	2.830000	0.155571	0.170899	71.236380
2607.048246	1.032132	0.085755	1.035689	77.443939	16.785754	0.000335	-68.305439	-68.305439	-68.305439	0.023753	0.222337	2.830000	0.151383	0.168595	71.501421
2644.601552	1.027760	0.079415	1.030824	77.186827	17.015459	0.000321	-68.623265	-68.623265	-68.623265	0.023263	0.215363	2.830000	0.147301	0.166319	71.762860
2682.695795	1.022646	0.073965	1.025317	76.925845	17.248683	0.000308	-68.938785	-68.938785	-68.938785	0.022749	0.208432	2.830000	0.143323	0.164070	72.020730
2721.338768	1.016950	0.069532	1.019324	76.661596	17.485475	0.000296	-69.251528	-69.251528	-69.251528	0.022210	0.201579	2.830000	0.139447	0.161849	72.275062
2760.538375	1.010856	0.066208	1.013022	76.394804	17.725886	0.000283	-69.560980	-69.560980	-69.560980	0.021644	0.194846	2.830000	0.135670	0.159654	72.525886
2800.302634	1.004566	0.064057	1.006606	76.126306	17.969965	0.000272	-69.866600	-69.866600	-69.866600	0.021052	0.188270	2.830000	0.131991	0.157485	72.773232
2840.639679	0.998295	0.063103	1.000287	75.857032	18.217762	0.000261	-70.167838	-70.167838	-70.167838	0.020435	0.181890	2.830000	0.128407	0.155343	73.017129
2881.557759	0.992263	0.063329	0.994281	75.587974	18.469327	0.000250	-70.464160	-70.464160	-70.464160	0.019796	0.175741	2.830000	0.124916	0.153227	73.257609
2923.065245	0.986688	0.064678	0.988806	75.320155	18.724708	0.000239	-70.755066	-70.755066	-70.755066	0.019139	0.169854	2.830000	0.121516	0.151137	73.494702
2965.170628	0.981779	0.067049	0.984065	75.054587	18.983955	0.000229	-71.040111	-71.040111	-71.040111	0.018471	0.164253	2.830000	0.118206	0.149073	73.728441
3007.882518	0.977722	0.070297	0.980246	74.792221	19.247117	0.000220	-71.318925	-71.318925	-71.318925	0.017796	0.158959	2.830000	0.114982	0.147035	73.958862
3051.209653	0.974680	0.074243	0.977503	74.533902	19.514244	0.000211	-71.591233	-71.591233	-71.591233	0.017123	0.153983	2.830000	0.111844	0.145022	74.186002
3095.160895	0.972773	0.078673	0.975949	74.280317	19.785387	0.000202	-71.856869	-71.856869	-71.856869	0.016458	0.149329	2.830000	0.108788	0.143035	74.409900
3139.745234	0.972083	0.083347	0.975650	74.031949	20.060594	0.000194	-72.115787	-72.115787	-72.115787	0.015810	0.144993	2.830000	0.105814	0.141073	74.630598
3184.971790	0.972639	0.088011	0.976612	73.789042	20.339918	0.000186	-72.368069	-72.368069	-72.368069	0.015186	0.140963	2.830000	0.102918	0.139135	74.848140
3230.849813	0.974415	0.092400	0.978786	73.551572	20.623412	0.000178	-72.613927	-72.613927	-72.613927	0.014593	0.137220	2.830000	0.100100	0.137223	75.062573
3277.388687	0.977329	0.096260	0.982058	73.319239	20.911127	0.000170	-72.853698	-72.853698	-72.853698	0.014037	0.133737	2.830000	0.097357	0.135335	75.273944
3324.597932	0.981246	0.099352	0.986263	73.091467	21.203119	0.000163	-73.087834	-73.087834	-73.087834	0.013524	0.130482	2.830000	0.094687	0.133471	75.482303
3372.487204	0.985974	0.101468	0.991181	72.867434	21.499445	0.000157	-73.316889	-73.316889	-73.316889	0.013057	0.127418	2.830000	0.092089	0.131631	75.687700
3421.066299	0.991277	0.102446	0.996557	72.646103	21.800161	0.000150	-73.541494	-73.541494	-73.541494	0.012638	0.124506	2.830000	0.089560	0.129816	75.890187
3470.345152	0.996885	0.102177	1.002107	72.426276	22.105329	0.000144	-73.762331	-73.762331	-73.762331	0.012267	0.121706	2.830000	0.087099	0.128023	76.089814
3520.333844	1.002499	0.100614	1.007536	72.206652	22.415008	0.000138	-73.980106	-73.980106	-73.980106	0.011944	0.118976	2.830000	0.084703	0.126255	76.286631
3571.042600	1.007816	0.097783	1.012549	71.985901	22.729264	0.000132	-74.195509	-74.195509	-74.195509	0.011663	0.116279	2.830000	0.082372	0.124509	76.480688
3622.481792	1.012539	0.093779	1.016872	71.762728	23.048161	0.000127	-74.409185	-74.409185	-74.409185	0.011421	0.113583	2.830000	0.080104	0.122786	76.672032
3674.661941	1.016394	0.088773	1.020264	71.535948	23.371766	0.000121	-74.621696	-74.621696	-74.621696	0.011210	0.110859	2.830000	0.077896	0.121086	76.860708
3727.593720	1.019155	0.082996	1.022529	71.304553	23.700149	0.000116	-74.833487	-74.833487	-74.833487	0.011023	0.108088	2.830000	0.075748	0.119409	77.046759
3781.287957	1.020654	0.076737	1.023535	71.067773	24.033380	0.000112	-75.044864	-75.044864	-75.044864	0.010850	0.105258	2.830000	0.073658	0.117753	77.230224
3835.755635	1.020797	0.070324	1.023216	70.825136	24.371530	0.000107	-75.255971	-75.255971	-75.255971	0.010683	0.102366	2.830000	0.071623	0.116119	77.411141
3891.007893	1.019575	0.064104	1.021589	70.576506	24.714672	0.000102	-75.466777	-75.466777	-75.466777	0.010513	0.099418	2.830000	0.069644	0.114507	77.589543
3947.056035	1.017071	0.058424	1.018748	70.322115	25.062881	0.000098	-75.677079	-75.677079	-75.677079	0.010331	0.096428	2.830000	0.067718	0.112916	77.765463
4003.911523	1.013456	0.053603	1.014873	70.062576	25.416231	0.000094	-75.886509	-75.886509	-75.886509	0.010130	0.093420	2.830000	0.065843	0.111346	77.938928
4061.585988	1.008986	0.049912	1.010219	69.798871	25.774796	0.000090	-76.094562	-76.094562	-76.094562	0.009907	0.090420	2.830000	0.064020	0.109797	78.109967
4120.091227	1.003984	0.047548	1.005109	69.532312	26.138651	0.000086	-76.300626	-76.300626	-76.300626	0.009657	0.087461	2.830000	0.062246	0.108269	78.278605
4179.439206	0.998825	0.046613	0.999912	69.264473	26.507872	0.000083	-76.504032	-76.504032	-76.504032	0.009380	0.084574	2.830000	0.060520	0.106761	78.444867
4239.642065	0.993905	0.047108	0.995020	68.997091	26.882533	0.000079	-76.704099	-76.704099	-76.704099	0.009079	0.081793	2.830000	0.058842	0.105273	78.608777
4300.712118	0.989611	0.048919	0.990820	68.731932	27.262711	0.000076	-76.900197	-76.900197	-76.900197	0.008758	0.079145	2.830000	0.057209	0.103805	78.770360
4362.661857	0.986294	0.051823	0.987654	68.470637	27.648480	0.000073	-77.091794	-77.091794	-77.091794	0.008424	0.076652	2.830000	0.055621	0.102356	78.929644
4425.503952	0.984229	0.055502	0.985793	68.214567	28.039916	0.000070	-77.278514	-77.278514	-77.278514	0.008084	0.074327	2.830000	0.054076	0.100928	79.086656
4489.251258	0.983594	0.059561	0.985396	67.964648	28.437096	0.000067	-77.460167	-77.460167	-77.460167	0.007749	0.072176	2.830000	0.052573	0.099518	79.241425
4553.916814	0.984444	0.063564	0.986494	67.721251	28.840096	0.000064	-77.636779	-77.636779	-77.636779	0.007428	0.070193	2.830000	0.051112	0.098127	79.393983
4619.513847	0.986701	0.067067	0.988978	67.484125	29.248997	0.000061	-77.808600	-77.808600	-77.808600	0.007129	0.068364	2.830000	0.049691	0.096755	79.544362
4686.055775	0.990152	0.069661	0.992599	67.252391	29.663878	0.000059	-77.976083	-77.976083	-77.976083	0.006860	0.066666	2.830000	0.048309	0.095402	79.692598
4753.556208	0.994462	0.071016	0.996995	67.024612	30.084821	0.000056	-78.139858	-78.139858	-78.139858	0.006626	0.065070	2.830000	0.046965	0.094067	79.838725
4822.028953	0.999204	0.070916	1.001717	66.798917	30.511911	0.000054	-78.300675	-78.300675	-78.300675	0.006429	0.063544	2.830000	0.045658	0.092751	79.982779
4891.488015	1.003891	0.069289	1.006280	66.573190	30.945235	0.000052	-78.459336	-78.459336	-78.459336	0.006268	0.062053	2.830000	0.044386	0.091452	80.124796
4961.947603	1.008032	0.066223	1.010205	66.345281	31.384882	0.000050	-78.616619	-78.616619	-78.616619	0.006139	0.060568	2.830000	0.043150	0.090171	80.264811
5033.422128	1.011178	0.061966	1.013075	66.113231	31.830943	0.000048	-78.773200	-78.773200	-78.773200	0.006036	0.059062	2.830000	0.041948	0.088907	80.402857
5105.926210	1.012979	0.056906	1.014576	65.875489	32.283513	0.000046	-78.929577	-78.929577	-78.929577	0.005949	0.057519	2.830000	0.040779	0.087661	80.538964
5179.474679	1.013231	0.051535	1.014541	65.631093	32.742686	0.000044	-79.086014	-79.086014	-79.086014	0.005868	0.055931	2.830000	0.039642	0.086432	80.673163
5254.082580	1.011905	0.046397	1.012968	65.379807	33.208560	0.000042	-79.242509	-79.242509	-79.242509	0.005784	0.054301	2.830000	0.038536	0.085219	80.805479
5329.765172	1.009163	0.042025	1.010038	65.122191	33.681233	0.000040	-79.398789	-79.398789	-79.398789	0.005686	0.052643	2.830000	0.037460	0.084023	80.935937
5406.537936	1.005349	0.038873	1.006101	64.859592	34.160805	0.000038	-79.554339	-79.554339	-79.554339	0.005567	0.050977	2.830000	0.036415	0.082843	81.064558
5484.416576	1.000954	0.037251	1.001647	64.594030	34.647375	0.000037	-79.708466	-79.708466	-79.708466	0.005424	0.049331	2.830000	0.035398	0.081680	81.191364
5563.417021	0.996559	0.037277	0.997256	64.327995	35.141042	0.000035	-79.860385	-79.860385	-79.860385	0.005256	0.047733	2.830000	0.034409	0.080533	81.316375
5643.555431	0.992761	0.038850	0.993520	64.064133	35.641909	0.000034	-80.009329	-80.009329	-80.009329	0.005067	0.046211	2.830000	0.033448	0.079401	81.439611
5724.848197	0.990091	0.041652	0.990966	63.804878	36.150074	0.000032	-80.154655	-80.154655	-80.154655	0.004864	0.044784	2.830000	0.032513	0.078285	81.561093
5807.311946	0.988932	0.045180	0.989963	63.552058	36.665639	0.000031	-80.295945	-80.295945	-80.295945	0.004656	0.043467	2.830000	0.031604	0.077184	81.680843
5890.963548	0.989453	0.048811	0.990657	63.306570	37.188707	0.000030	-80.433078	-80.433078	-80.433078	0.004454	0.042259	2.830000	0.030720	0.076098	81.798884
5975.820111	0.991575	0.051890	0.992932	63.068173	37.719381	0.000029	-80.566256	-80.566256	-80.566256	0.004269	0.041153	2.830000	0.029861	0.075028	81.915242
6061.898993	0.994962	0.053834	0.996417	62.835470	38.257768	0.000027	-80.695989	-80.695989	-80.695989	0.004109	0.040128	2.830000	0.029026	0.073972	82.029942
6149.217802	0.999067	0.054226	1.000537	62.606097	38.803975	0.000026	-80.823025	-80.823025	-80.823025	0.003979	0.039159	2.830000	0.028214	0.072931	82.143013
6237.794396	1.003208	0.052897	1.004601	62.377090	39.358113	0.000025	-80.948240	-80.948240	-80.948240	0.003880	0.038217	2.830000	0.027425	0.071904	82.254481
6327.646895	1.006679	0.049970	1.007919	62.145370	39.920297	0.000024	-81.072501	-81.072501	-81.072501	0.003807	0.037275	2.830000	0.026657	0.070891	82.364374
6418.793677	1.008872	0.045852	1.009914	61.908267	40.490643	0.000023	-81.196519	-81.196519	-81.196519	0.003754	0.036311	2.830000	0.025911	0.069893	82.472717
6511.253386	1.009393	0.041177	1.010233	61.664006	41.069270	0.000022	-81.320725	-81.320725	-81.320725	0.003709	0.035314	2.830000	0.025185	0.068908	82.579533
6605.044933	1.008147	0.036702	1.008815	61.412059	41.656299	0.000021	-81.445188	-81.445188	-81.445188	0.003662	0.034284	2.830000	0.024480	0.067937	82.684845
6700.187504	1.005375	0.033170	1.005922	61.153311	42.251853	0.000020	-81.569596	-81.569596	-81.569596	0.003600	0.033232	2.830000	0.023794	0.066979	82.788672
6796.700558	1.001623	0.031157	1.002108	60.889990	42.856056	0.000019	-81.693313	-81.693313	-81.693313	0.003518	0.032178	2.830000	0.023128	0.066035	82.891032
6894.603838	0.997652	0.030953	0.998132	60.625317	43.469033	0.000019	-81.815498	-81.815498	-81.815498	0.003412	0.031149	2.830000	0.022479	0.065104	82.991942
6993.917368	0.994286	0.032478	0.994817	60.362912	44.090908	0.000018	-81.935281	-81.935281	-81.935281	0.003286	0.030168	2.830000	0.021849	0.064186	83.091419
7094.661463	0.992245	0.035285	0.992872	60.106031	44.721807	0.000017	-82.051945	-82.051945	-82.051945	0.003147	0.029256	2.830000	0.021237	0.063280	83.189481
7196.856730	0.991976	0.038634	0.992728	59.856789	45.361856	0.000016	-82.165096	-82.165096	-82.165096	0.003005	0.028421	2.830000	0.020641	0.062387	83.286145
7300.524071	0.993535	0.041642	0.994407	59.615588	46.011185	0.000016	-82.274758	-82.274758	-82.274758	0.002874	0.027661	2.830000	0.020062	0.061507	83.381431
7405.684692	0.996558	0.043486	0.997506	59.380921	46.669922	0.000015	-82.381388	-82.381388	-82.381388	0.002763	0.026962	2.830000	0.019500	0.060639	83.475361
7512.360102	1.000319	0.043601	1.001268	59.149660	47.338201	0.000014	-82.485783	-82.485783	-82.485783	0.002678	0.026302	2.830000	0.018953	0.059783	83.567957
7620.572122	1.003890	0.041834	1.004761	58.917777	48.016159	0.000014	-82.588901	-82.588901	-82.588901	0.002620	0.025654	2.830000	0.018421	0.058938	83.659240
7730.342884	1.006368	0.038506	1.007105	58.681330	48.703935	0.000013	-82.691635	-82.691635	-82.691635	0.002582	0.024996	2.830000	0.017904	0.058106	83.749232
7841.694843	1.007111	0.034354	1.007697	58.437466	49.401671	0.000013	-82.794586	-82.794586	-82.794586	0.002555	0.024313	2.830000	0.017402	0.057286	83.837953
7954.650775	1.005923	0.030358	1.006381	58.185215	50.109513	0.000012	-82.897904	-82.897904	-82.897904	0.002525	0.023604	2.830000	0.016913	0.056476	83.925421
8069.233784	1.003135	0.027482	1.003512	57.925848	50.827608	0.000012	-83.001242	-83.001242	-83.001242	0.002482	0.022878	2.830000	0.016439	0.055678	84.011654
8185.467307	0.999540	0.026402	0.999888	57.662662	51.556104	0.000011	-83.103845	-83.103845	-83.103845	0.002418	0.022154	2.830000	0.015977	0.054892	84.096666
8303.375120	0.996185	0.027289	0.996559	57.400178	52.295152	0.000011	-83.204761	-83.204761	-83.204761	0.002334	0.021458	2.830000	0.015529	0.054116	84.180472
8422.981339	0.994075	0.029731	0.994519	57.142859	53.044900	0.000010	-83.303123	-83.303123	-83.303123	0.002234	0.020808	2.830000	0.015092	0.053351	84.263086
8544.310429	0.993856	0.032832	0.994398	56.893691	53.805501	0.000010	-83.398419	-83.398419	-83.398419	0.002130	0.020215	2.830000	0.014669	0.052597	84.344523
8667.387209	0.995593	0.035463	0.996224	56.653114	54.577107	0.000009	-83.490669	-83.490669	-83.490669	0.002036	0.019678	2.830000	0.014257	0.051853	84.424801
8792.236851	0.998716	0.036624	0.999387	56.418735	55.359874	0.000009	-83.580435	-83.580435	-83.580435	0.001962	0.019183	2.830000	0.013856	0.051120	84.503937
8918.884894	1.002176	0.035779	1.002815	56.186017	56.153961	0.000009	-83.668655	-83.668655	-83.668655	0.001912	0.018708	2.830000	0.013467	0.050397	84.581949
9047.357242	1.004783	0.033076	1.005327	55.949773	56.959531	0.000008	-83.756344	-83.756344	-83.756344	0.001883	0.018230	2.830000	0.013088	0.049684	84.658857
9177.680175	1.005615	0.029322	1.006043	55.705955	57.776750	0.000008	-83.844250	-83.844250	-83.844250	0.001865	0.017733	2.830000	0.012721	0.048982	84.734677
9309.880348	1.004377	0.025731	1.004706	55.453140	58.605788	0.000008	-83.932582	-83.932582	-83.932582	0.001845	0.017214	2.830000	0.012363	0.048289	84.809425
9443.984802	1.001535	0.023488	1.001811	55.193190	59.446816	0.000007	-84.020930	-84.020930	-84.020930	0.001812	0.016683	2.830000	0.012016	0.047606	84.883115
9580.020968	0.998188	0.023293	0.998460	54.930742	60.300007	0.000007	-84.108412	-84.108412	-84.108412	0.001758	0.016159	2.830000	0.011678	0.046932	84.955761
9718.016671	0.995659	0.025055	0.995975	54.671573	61.165536	0.000007	-84.194009	-84.194009	-84.194009	0.001686	0.015663	2.830000	0.011350	0.046268	85.027374
9858.000137	0.994974	0.027891	0.995365	54.420295	62.043579	0.000006	-84.276981	-84.276981	-84.276981	0.001607	0.015210	2.830000	0.011031	0.045613	85.097969
10000.000000	0.996412	0.030446	0.996877	54.178305	62.934312	0.000006	-84.357181	-84.357181	-84.357181	0.001533	0.014802	2.830000	0.010720	0.044968	85.167559
10144.045304	0.999349	0.031457	0.999844	53.942991	63.837917	0.000006	-84.435138	-84.435138	-84.435138	0.001477	0.014427	2.830000	0.010419	0.044331	85.236159
10290.165513	1.002485	0.030315	1.002943	53.708726	64.754576	0.000006	-84.511855	-84.511855	-84.511855	0.001443	0.014065	2.830000	0.010126	0.043703	85.303786
10438.390514	1.004396	0.027371	1.004769	53.469307	65.684477	0.000005	-84.588373	-84.588373	-84.588373	0.001427	0.013695	2.830000	0.009841	0.043085	85.370455
10588.750628	1.004196	0.023832	1.004479	53.220799	66.627814	0.000005	-84.665306	-84.665306	-84.665306	0.001416	0.013308	2.830000	0.009565	0.042475	85.436180
10741.276608	1.001989	0.021217	1.002213	52.963482	67.584780	0.000005	-84.742549	-84.742549	-84.742549	0.001396	0.012905	2.830000	0.009296	0.041873	85.500975
10895.999653	0.998868	0.020633	0.999081	52.701948	68.555574	0.000005	-84.819318	-84.819318	-84.819318	0.001358	0.012503	2.830000	0.009034	0.041280	85.564851
11052.951411	0.996417	0.022186	0.996664	52.443059	69.540393	0.000005	-84.894534	-84.894534	-84.894534	0.001302	0.012120	2.830000	0.008780	0.040696	85.627820
11212.163986	0.995908	0.024876	0.996219	52.192495	70.539438	0.000004	-84.967377	-84.967377	-84.967377	0.001239	0.011772	2.830000	0.008533	0.040119	85.689894
11373.669943	0.997605	0.027075	0.997972	51.951586	71.552912	0.000004	-85.037732	-85.037732	-85.037732	0.001183	0.011459	2.830000	0.008293	0.039551	85.751085
11537.502317	1.000566	0.027389	1.000940	51.716337	72.581019	0.000004	-85.106271	-85.106271	-85.106271	0.001145	0.011169	2.830000	0.008060	0.038991	85.811405
11703.694619	1.003115	0.025459	1.003438	51.479476	73.623970	0.000004	-85.174109	-85.174109	-85.174109	0.001126	0.010882	2.830000	0.007833	0.038439	85.870870
11872.280844	1.003776	0.022220	1.004022	51.234539	74.681978	0.000004	-85.242184	-85.242184	-85.242184	0.001118	0.010584	2.830000	0.007612	0.037894	85.929493
12043.295474	1.002165	0.019413	1.002353	50.979704	75.755264	0.000003	-85.310709	-85.310709	-85.310709	0.001106	0.010269	2.830000	0.007398	0.037357	85.987286
12216.773490	0.999277	0.018554	0.999449	50.719122	76.844046	0.000003	-85.379041	-85.379041	-85.379041	0.001079	0.009951	2.830000	0.007190	0.036828	86.044260
12392.750375	0.996935	0.019975	0.997136	50.460664	77.948550	0.000003	-85.446065	-85.446065	-85.446065	0.001035	0.009648	2.830000	0.006988	0.036306	86.100424
12571.262124	0.996650	0.022541	0.996905	50.211039	79.068999	0.000003	-85.510907	-85.510907	-85.510907	0.000983	0.009373	2.830000	0.006791	0.035792	86.155790
12752.345251	0.998599	0.024340	0.998895	49.971207	80.205620	0.000003	-85.573514	-85.573514	-85.573514	0.000940	0.009126	2.830000	0.006600	0.035284	86.210368
12936.036796	1.001442	0.023940	1.001728	49.735427	81.358645	0.000003	-85.634719	-85.634719	-85.634719	0.000914	0.008894	2.830000	0.006414	0.034784	86.264171
13122.374331	1.003184	0.021422	1.003412	49.495022	82.528309	0.000003	-85.695691	-85.695691	-85.695691	0.000905	0.008659	2.830000	0.006233	0.034291	86.317211
13311.395971	1.002579	0.018397	1.002747	49.244480	83.714854	0.000003	-85.757124	-85.757124	-85.757124	0.000900	0.008410	2.830000	0.006058	0.033805	86.369500
13503.140379	1.000087	0.016883	1.000229	48.985612	84.918524	0.000002	-85.818730	-85.818730	-85.818730	0.000883	0.008153	2.830000	0.005887	0.033326	86.421048
13697.646775	0.997609	0.017802	0.997768	48.726569	86.139566	0.000002	-85.879449	-85.879449	-85.879449	0.000849	0.007904	2.830000	0.005722	0.032854	86.471864
13894.954944	0.997076	0.020200	0.997280	48.475847	87.378228	0.000002	-85.938252	-85.938252	-85.938252	0.000806	0.007677	2.830000	0.005561	0.032388	86.521957
14095.105244	0.998900	0.021927	0.999141	48.235438	88.634763	0.000002	-85.994966	-85.994966	-85.994966	0.000770	0.007474	2.830000	0.005404	0.031929	86.571339
14298.138616	1.001569	0.021341	1.001796	47.998857	89.909426	0.000002	-86.050436	-86.050436	-86.050436	0.000751	0.007282	2.830000	0.005252	0.031476	86.620019
14504.096588	1.002826	0.018723	1.003001	47.756291	91.202478	0.000002	-86.105853	-86.105853	-86.105853	0.000745	0.007086	2.830000	0.005104	0.031030	86.668008
14713.021288	1.001595	0.016120	1.001724	47.502926	92.514184	0.000002	-86.161754	-86.161754	-86.161754	0.000740	0.006878	2.830000	0.004960	0.030590	86.715318
14924.955451	0.998986	0.015609	0.999108	47.243404	93.844816	0.000002	-86.217550	-86.217550	-86.217550	0.000720	0.006667	2.830000	0.004820	0.030156	86.761956
15139.942425	0.997389	0.017402	0.997541	46.988081	95.194645	0.000002	-86.272049	-86.272049	-86.272049	0.000687	0.006469	2.830000	0.004685	0.029729	86.807932
15358.026185	0.998291	0.019562	0.998483	46.743602	96.563946	0.000002	-86.324552	-86.324552	-86.324552	0.000652	0.006292	2.830000	0.004553	0.029307	86.853255
15579.251340	1.000806	0.019768	1.001001	46.506261	97.952997	0.000002	-86.375536	-86.375536	-86.375536	0.000631	0.006130	2.830000	0.004425	0.028891	86.897933
15803.663140	1.002441	0.017585	1.002595	46.265248	99.362082	0.000002	-86.426218	-86.426218	-86.426218	0.000625	0.005967	2.830000	0.004300	0.028482	86.941978
16031.307485	1.001549	0.014993	1.001661	46.013305	100.791491	0.000001	-86.477363	-86.477363	-86.477363	0.000622	0.005794	2.830000	0.004179	0.028078	86.985398
16262.230941	0.999079	0.014434	0.999183	45.754351	102.241518	0.000001	-86.528509	-86.528509	-86.528509	0.000606	0.005617	2.830000	0.004061	0.027680	87.028202
16496.480741	0.997675	0.016229	0.997807	45.499847	103.712459	0.000001	-86.578441	-86.578441	-86.578441	0.000577	0.005451	2.830000	0.003947	0.027287	87.070398
16734.104799	0.998861	0.018138	0.999026	45.256600	105.204614	0.000001	-86.626501	-86.626501	-86.626501	0.000548	0.005303	2.830000	0.003836	0.026900	87.111995
16975.151720	1.001284	0.017759	1.001441	45.018862	106.718287	0.000001	-86.673336	-86.673336	-86.673336	0.000534	0.005166	2.830000	0.003728	0.026518	87.153000
17219.670809	1.002145	0.015286	1.002262	44.774474	108.253788	0.000001	-86.720189	-86.720189	-86.720189	0.000532	0.005025	2.830000	0.003623	0.026142	87.193424
17467.712080	1.000446	0.013390	1.000536	44.518935	109.811431	0.000001	-86.767476	-86.767476	-86.767476	0.000526	0.004875	2.830000	0.003520	0.025771	87.233275
17719.326270	0.998267	0.014087	0.998367	44.261126	111.391537	0.000001	-86.814292	-86.814292	-86.814292	0.000506	0.004727	2.830000	0.003421	0.025406	87.272560
17974.564843	0.998315	0.016212	0.998447	44.012900	112.994429	0.000001	-86.859513	-86.859513	-86.859513	0.000479	0.004594	2.830000	0.003325	0.025045	87.311287
18233.480009	1.000504	0.016773	1.000645	43.774072	114.620432	0.000001	-86.903211	-86.903211	-86.903211	0.000461	0.004474	2.830000	0.003231	0.024690	87.349463
18496.124725	1.001957	0.014778	1.002066	43.532188	116.269879	0.000001	-86.946591	-86.946591	-86.946591	0.000458	0.004355	2.830000	0.003140	0.024340	87.387098
18762.552716	1.000742	0.012641	1.000822	43.278735	117.943108	0.000001	-86.990422	-86.990422	-86.990422	0.000455	0.004227	2.830000	0.003052	0.023995	87.424199
19032.818477	0.998555	0.013005	0.998640	43.020895	119.640463	0.000001	-87.034012	-87.034012	-87.034012	0.000439	0.004099	2.830000	0.002966	0.023654	87.460773
19306.977289	0.998477	0.015041	0.998590	42.772115	121.362291	0.000001	-87.076162	-87.076162	-87.076162	0.000415	0.003983	2.830000	0.002882	0.023319	87.496828
19585.085230	1.000592	0.015509	1.000713	42.532957	123.108942	0.000001	-87.116874	-87.116874	-87.116874	0.000400	0.003879	2.830000	0.002801	0.022988	87.532370
19867.199185	1.001756	0.013449	1.001846	42.289796	124.880773	0.000001	-87.157370	-87.157370	-87.157370	0.000398	0.003774	2.830000	0.002722	0.022662	87.567408
20000.000000	1.001315	0.012373	1.001392	42.172265	125.714842	0.000001	-87.176405	-87.176405	-87.176405	0.000398	0.003722	2.830000	0.002686	0.022511	87.583560
