Freq (hertz)	Ra (norm)	Xa (norm)	Za (norm)	SPL (dB)	Ze (ohms)	Xd (mm) 	WPhase (deg)	UPhase (deg)	CPhase (deg)	Delay (msec)	Efficiency (%)	Ein (volts)	Pin (watts)	Iin (amps)	ZePhase (deg)

10.000000	0.000277	0.019982	0.019984	71.599311	4.650635	2.720778	131.702438	131.702438	131.702438	8.072793	0.007158	2.830000	1.224075	0.608519	44.699971
10.144045	0.000285	0.020270	0.020272	71.779194	4.688634	2.699389	131.287046	131.287046	131.287046	7.948817	0.007570	2.830000	1.206531	0.603587	45.062332
10.290166	0.000293	0.020562	0.020564	71.958197	4.727456	2.677898	130.872181	130.872181	130.872181	7.825229	0.008004	2.830000	1.189043	0.598631	45.423348
10.438391	0.000302	0.020858	0.020860	72.136325	4.767114	2.656309	130.457923	130.457923	130.457923	7.702080	0.008463	2.830000	1.171618	0.593651	45.782925
10.588751	0.000311	0.021158	0.021160	72.313579	4.807625	2.634630	130.044352	130.044352	130.044352	7.579416	0.008948	2.830000	1.154262	0.588648	46.140970
10.741277	0.000320	0.021463	0.021465	72.489964	4.849003	2.612866	129.631544	129.631544	129.631544	7.457285	0.009461	2.830000	1.136982	0.583625	46.497391
10.896000	0.000329	0.021772	0.021774	72.665484	4.891263	2.591024	129.219576	129.219576	129.219576	7.335732	0.010002	2.830000	1.119784	0.578583	46.852095
11.052951	0.000339	0.022085	0.022088	72.840142	4.934422	2.569110	128.808524	128.808524	128.808524	7.214803	0.010575	2.830000	1.102675	0.573522	47.204991
11.212164	0.000348	0.022403	0.022406	73.013943	4.978494	2.547130	128.398464	128.398464	128.398464	7.094543	0.011179	2.830000	1.085662	0.568445	47.555989
11.373670	0.000358	0.022726	0.022729	73.186892	5.023496	2.525090	127.989468	127.989468	127.989468	6.974994	0.011817	2.830000	1.068750	0.563353	47.904999
11.537502	0.000369	0.023053	0.023056	73.358994	5.069444	2.502997	127.581610	127.581610	127.581610	6.856199	0.012491	2.830000	1.051945	0.558247	48.251931
11.703695	0.000380	0.023385	0.023388	73.530255	5.116355	2.480858	127.174960	127.174960	127.174960	6.738198	0.013203	2.830000	1.035254	0.553128	48.596698
11.872281	0.000391	0.023722	0.023725	73.700680	5.164245	2.458677	126.769589	126.769589	126.769589	6.621032	0.013955	2.830000	1.018681	0.547999	48.939212
12.043295	0.000402	0.024063	0.024067	73.870276	5.213133	2.436463	126.365566	126.365566	126.365566	6.504739	0.014749	2.830000	1.002233	0.542860	49.279386
12.216773	0.000414	0.024410	0.024413	74.039048	5.263035	2.414220	125.962956	125.962956	125.962956	6.389357	0.015587	2.830000	0.985915	0.537713	49.617135
12.392750	0.000426	0.024761	0.024765	74.207003	5.313969	2.391956	125.561827	125.561827	125.561827	6.274920	0.016472	2.830000	0.969731	0.532559	49.952376
12.571262	0.000438	0.025118	0.025121	74.374148	5.365953	2.369676	125.162243	125.162243	125.162243	6.161465	0.017406	2.830000	0.953687	0.527399	50.285023
12.752345	0.000451	0.025479	0.025483	74.540489	5.419006	2.347386	124.764266	124.764266	124.764266	6.049024	0.018392	2.830000	0.937787	0.522236	50.614996
12.936037	0.000464	0.025846	0.025850	74.706035	5.473146	2.325093	124.367956	124.367956	124.367956	5.937629	0.019433	2.830000	0.922036	0.517070	50.942214
13.122374	0.000477	0.026218	0.026223	74.870792	5.528393	2.302803	123.973375	123.973375	123.973375	5.827311	0.020532	2.830000	0.906439	0.511903	51.266595
13.311396	0.000491	0.026596	0.026600	75.034768	5.584766	2.280522	123.580579	123.580579	123.580579	5.718097	0.021692	2.830000	0.890998	0.506736	51.588062
13.503140	0.000505	0.026979	0.026983	75.197972	5.642285	2.258256	123.189624	123.189624	123.189624	5.610017	0.022915	2.830000	0.875720	0.501570	51.906537
13.697647	0.000520	0.027367	0.027372	75.360410	5.700970	2.236010	122.800566	122.800566	122.800566	5.503095	0.024206	2.830000	0.860606	0.496407	52.221943
13.894955	0.000535	0.027761	0.027766	75.522092	5.760842	2.213791	122.413455	122.413455	122.413455	5.397357	0.025569	2.830000	0.845660	0.491248	52.534205
14.095105	0.000551	0.028161	0.028166	75.683025	5.821921	2.191604	122.028344	122.028344	122.028344	5.292825	0.027006	2.830000	0.830887	0.486094	52.843249
14.298139	0.000567	0.028566	0.028572	75.843219	5.884230	2.169454	121.645280	121.645280	121.645280	5.189521	0.028522	2.830000	0.816288	0.480946	53.149002
14.504097	0.000583	0.028977	0.028983	76.002681	5.947791	2.147348	121.264312	121.264312	121.264312	5.087464	0.030120	2.830000	0.801867	0.475807	53.451393
14.713021	0.000600	0.029394	0.029400	76.161422	6.012625	2.125291	120.885485	120.885485	120.885485	4.986673	0.031807	2.830000	0.787626	0.470676	53.750350
14.924955	0.000617	0.029817	0.029824	76.319448	6.078756	2.103287	120.508841	120.508841	120.508841	4.887166	0.033585	2.830000	0.773568	0.465556	54.045805
15.139942	0.000635	0.030247	0.030253	76.476771	6.146208	2.081343	120.134423	120.134423	120.134423	4.788958	0.035459	2.830000	0.759695	0.460447	54.337690
15.358026	0.000654	0.030682	0.030689	76.633399	6.215003	2.059463	119.762270	119.762270	119.762270	4.692062	0.037436	2.830000	0.746009	0.455350	54.625936
15.579251	0.000673	0.031124	0.031131	76.789340	6.285167	2.037652	119.392420	119.392420	119.392420	4.596492	0.039520	2.830000	0.732512	0.450266	54.910479
15.803663	0.000692	0.031572	0.031579	76.944605	6.356726	2.015916	119.024909	119.024909	119.024909	4.502259	0.041716	2.830000	0.719205	0.445198	55.191253
16.031307	0.000712	0.032026	0.032034	77.099203	6.429703	1.994258	118.659771	118.659771	118.659771	4.409372	0.044031	2.830000	0.706091	0.440145	55.468194
16.262231	0.000733	0.032487	0.032495	77.253143	6.504126	1.972684	118.297040	118.297040	118.297040	4.317841	0.046470	2.830000	0.693169	0.435108	55.741240
16.496481	0.000754	0.032955	0.032963	77.406435	6.580022	1.951198	117.936744	117.936744	117.936744	4.227672	0.049040	2.830000	0.680442	0.430090	56.010328
16.734105	0.000776	0.033429	0.033438	77.559089	6.657418	1.929804	117.578913	117.578913	117.578913	4.138871	0.051747	2.830000	0.667910	0.425090	56.275398
16.975152	0.000798	0.033910	0.033920	77.711113	6.736343	1.908507	117.223573	117.223573	117.223573	4.051442	0.054599	2.830000	0.655573	0.420109	56.536389
17.219671	0.000822	0.034398	0.034408	77.862518	6.816825	1.887310	116.870751	116.870751	116.870751	3.965390	0.057603	2.830000	0.643433	0.415149	56.793241
17.467712	0.000845	0.034893	0.034903	78.013314	6.898895	1.866218	116.520468	116.520468	116.520468	3.880716	0.060766	2.830000	0.631489	0.410211	57.045897
17.719326	0.000870	0.035395	0.035406	78.163509	6.982582	1.845235	116.172746	116.172746	116.172746	3.797421	0.064096	2.830000	0.619742	0.405294	57.294297
17.974565	0.000895	0.035905	0.035916	78.313114	7.067919	1.824363	115.827606	115.827606	115.827606	3.715505	0.067603	2.830000	0.608192	0.400401	57.538385
18.233480	0.000921	0.036421	0.036433	78.462138	7.154936	1.803607	115.485064	115.485064	115.485064	3.634966	0.071294	2.830000	0.596839	0.395531	57.778104
18.496125	0.000948	0.036946	0.036958	78.610590	7.243668	1.782971	115.145139	115.145139	115.145139	3.555803	0.075178	2.830000	0.585681	0.390686	58.013398
18.762553	0.000975	0.037477	0.037490	78.758481	7.334148	1.762457	114.807843	114.807843	114.807843	3.478011	0.079266	2.830000	0.574720	0.385866	58.244209
19.032818	0.001004	0.038016	0.038030	78.905820	7.426411	1.742068	114.473191	114.473191	114.473191	3.401587	0.083567	2.830000	0.563954	0.381072	58.470484
19.306977	0.001033	0.038563	0.038577	79.052617	7.520493	1.721808	114.141194	114.141194	114.141194	3.326525	0.088091	2.830000	0.553383	0.376305	58.692166
19.585085	0.001063	0.039118	0.039133	79.198880	7.616431	1.701679	113.811861	113.811861	113.811861	3.252818	0.092849	2.830000	0.543005	0.371565	58.909200
19.867199	0.001094	0.039681	0.039696	79.344619	7.714262	1.681684	113.485201	113.485201	113.485201	3.180460	0.097853	2.830000	0.532821	0.366853	59.121531
20.153377	0.001125	0.040252	0.040268	79.489845	7.814026	1.661826	113.161221	113.161221	113.161221	3.109443	0.103115	2.830000	0.522828	0.362169	59.329103
20.443677	0.001158	0.040831	0.040848	79.634565	7.915763	1.642108	112.839925	112.839925	112.839925	3.039758	0.108646	2.830000	0.513025	0.357514	59.531861
20.738158	0.001192	0.041419	0.041436	79.778789	8.019515	1.622531	112.521319	112.521319	112.521319	2.971395	0.114459	2.830000	0.503412	0.352889	59.729750
21.036882	0.001226	0.042014	0.042032	79.922527	8.125323	1.603098	112.205404	112.205404	112.205404	2.904345	0.120568	2.830000	0.493987	0.348294	59.922713
21.339908	0.001262	0.042619	0.042637	80.065787	8.233232	1.583810	111.892182	111.892182	111.892182	2.838596	0.126986	2.830000	0.484748	0.343729	60.110694
21.647300	0.001298	0.043232	0.043251	80.208579	8.343288	1.564671	111.581651	111.581651	111.581651	2.774138	0.133729	2.830000	0.475694	0.339195	60.293636
21.959119	0.001336	0.043854	0.043874	80.350911	8.455536	1.545682	111.273811	111.273811	111.273811	2.710957	0.140810	2.830000	0.466823	0.334692	60.471481
22.275430	0.001375	0.044484	0.044506	80.492792	8.570025	1.526844	110.968659	110.968659	110.968659	2.649041	0.148245	2.830000	0.458134	0.330221	60.644169
22.596297	0.001415	0.045124	0.045146	80.634231	8.686806	1.508159	110.666191	110.666191	110.666191	2.588378	0.156051	2.830000	0.449624	0.325781	60.811643
22.921786	0.001456	0.045773	0.045796	80.775236	8.805928	1.489628	110.366400	110.366400	110.366400	2.528954	0.164245	2.830000	0.441292	0.321374	60.973840
23.251963	0.001498	0.046432	0.046456	80.915817	8.927445	1.471254	110.069282	110.069282	110.069282	2.470754	0.172843	2.830000	0.433137	0.317000	61.130700
23.586897	0.001541	0.047099	0.047124	81.055980	9.051412	1.453037	109.774828	109.774828	109.774828	2.413764	0.181863	2.830000	0.425155	0.312658	61.282158
23.926655	0.001586	0.047777	0.047803	81.195736	9.177885	1.434978	109.483029	109.483029	109.483029	2.357969	0.191326	2.830000	0.417345	0.308350	61.428149
24.271307	0.001632	0.048464	0.048491	81.335091	9.306923	1.417079	109.193877	109.193877	109.193877	2.303354	0.201249	2.830000	0.409704	0.304075	61.568607
24.620924	0.001679	0.049160	0.049189	81.474054	9.438586	1.399340	108.907359	108.907359	108.907359	2.249904	0.211653	2.830000	0.402232	0.299833	61.703464
24.975577	0.001728	0.049867	0.049897	81.612632	9.572936	1.381762	108.623464	108.623464	108.623464	2.197603	0.222558	2.830000	0.394925	0.295625	61.832648
25.335338	0.001778	0.050584	0.050615	81.750835	9.710039	1.364346	108.342180	108.342180	108.342180	2.146435	0.233987	2.830000	0.387781	0.291451	61.956088
25.700282	0.001830	0.051311	0.051344	81.888668	9.849960	1.347093	108.063493	108.063493	108.063493	2.096383	0.245961	2.830000	0.380799	0.287311	62.073707
26.070482	0.001883	0.052049	0.052083	82.026141	9.992769	1.330004	107.787389	107.787389	107.787389	2.047431	0.258503	2.830000	0.373975	0.283205	62.185428
26.446016	0.001937	0.052797	0.052833	82.163259	10.138538	1.313077	107.513851	107.513851	107.513851	1.999563	0.271638	2.830000	0.367308	0.279133	62.291170
26.826958	0.001993	0.053556	0.053593	82.300032	10.287340	1.296315	107.242864	107.242864	107.242864	1.952761	0.285389	2.830000	0.360795	0.275095	62.390850
27.213388	0.002051	0.054326	0.054365	82.436465	10.439252	1.279718	106.974411	106.974411	106.974411	1.907010	0.299781	2.830000	0.354435	0.271092	62.484380
27.605384	0.002111	0.055107	0.055147	82.572566	10.594355	1.263285	106.708474	106.708474	106.708474	1.862291	0.314842	2.830000	0.348224	0.267123	62.571669
28.003026	0.002172	0.055899	0.055941	82.708342	10.752729	1.247016	106.445034	106.445034	106.445034	1.818588	0.330597	2.830000	0.342161	0.263189	62.652625
28.406397	0.002235	0.056702	0.056746	82.843799	10.914461	1.230912	106.184073	106.184073	106.184073	1.775884	0.347074	2.830000	0.336243	0.259289	62.727147
28.815578	0.002300	0.057517	0.057563	82.978945	11.079640	1.214973	105.925571	105.925571	105.925571	1.734162	0.364301	2.830000	0.330467	0.255423	62.795134
29.230652	0.002366	0.058343	0.058391	83.113786	11.248356	1.199199	105.669507	105.669507	105.669507	1.693404	0.382308	2.830000	0.324832	0.251592	62.856479
29.651706	0.002435	0.059181	0.059232	83.248327	11.420705	1.183589	105.415860	105.415860	105.415860	1.653594	0.401125	2.830000	0.319335	0.247796	62.911069
30.078825	0.002505	0.060032	0.060084	83.382577	11.596786	1.168143	105.164609	105.164609	105.164609	1.614715	0.420782	2.830000	0.313975	0.244033	62.958788
30.512097	0.002578	0.060894	0.060949	83.516540	11.776702	1.152862	104.915731	104.915731	104.915731	1.576749	0.441311	2.830000	0.308747	0.240305	62.999513
30.951609	0.002653	0.061769	0.061826	83.650222	11.960558	1.137744	104.669204	104.669204	104.669204	1.539679	0.462745	2.830000	0.303651	0.236611	63.033114
31.397452	0.002730	0.062656	0.062715	83.783631	12.148466	1.122789	104.425005	104.425005	104.425005	1.503489	0.485115	2.830000	0.298684	0.232951	63.059458
31.849718	0.002809	0.063556	0.063618	83.916770	12.340539	1.107997	104.183110	104.183110	104.183110	1.468161	0.508457	2.830000	0.293844	0.229325	63.078404
32.308498	0.002890	0.064468	0.064533	84.049646	12.536898	1.093367	103.943495	103.943495	103.943495	1.433680	0.532805	2.830000	0.289129	0.225734	63.089802
32.773887	0.002974	0.065394	0.065462	84.182265	12.737665	1.078898	103.706135	103.706135	103.706135	1.400028	0.558194	2.830000	0.284535	0.222176	63.093496
33.245979	0.003060	0.066333	0.066404	84.314632	12.942970	1.064591	103.471006	103.471006	103.471006	1.367189	0.584660	2.830000	0.280062	0.218652	63.089324
33.724872	0.003149	0.067285	0.067359	84.446751	13.152945	1.050444	103.238082	103.238082	103.238082	1.335147	0.612240	2.830000	0.275707	0.215161	63.077114
34.210663	0.003240	0.068251	0.068328	84.578629	13.367729	1.036456	103.007338	103.007338	103.007338	1.303885	0.640973	2.830000	0.271467	0.211704	63.056683
34.703452	0.003334	0.069231	0.069311	84.710270	13.587467	1.022627	102.778748	102.778748	102.778748	1.273388	0.670895	2.830000	0.267342	0.208280	63.027843
35.203338	0.003431	0.070225	0.070308	84.841678	13.812308	1.008956	102.552286	102.552286	102.552286	1.243639	0.702047	2.830000	0.263328	0.204890	62.990392
35.710426	0.003530	0.071232	0.071320	84.972860	14.042407	0.995443	102.327925	102.327925	102.327925	1.214623	0.734466	2.830000	0.259423	0.201532	62.944120
36.224818	0.003633	0.072254	0.072346	85.103818	14.277927	0.982086	102.105638	102.105638	102.105638	1.186324	0.768195	2.830000	0.255626	0.198208	62.888805
36.746619	0.003738	0.073291	0.073386	85.234558	14.519035	0.968884	101.885399	101.885399	101.885399	1.158728	0.803273	2.830000	0.251934	0.194917	62.824212
37.275937	0.003846	0.074342	0.074442	85.365085	14.765905	0.955836	101.667180	101.667180	101.667180	1.131818	0.839741	2.830000	0.248346	0.191658	62.750096
37.812880	0.003958	0.075409	0.075513	85.495401	15.018720	0.942942	101.450955	101.450955	101.450955	1.105580	0.877642	2.830000	0.244860	0.188432	62.666197
38.357556	0.004072	0.076490	0.076599	85.625512	15.277668	0.930200	101.236694	101.236694	101.236694	1.080000	0.917018	2.830000	0.241473	0.185238	62.572241
38.910079	0.004190	0.077587	0.077700	85.755421	15.542943	0.917610	101.024371	101.024371	101.024371	1.055062	0.957910	2.830000	0.238184	0.182076	62.467939
39.470560	0.004312	0.078700	0.078818	85.885133	15.814751	0.905170	100.813958	100.813958	100.813958	1.030752	1.000363	2.830000	0.234990	0.178947	62.352986
40.039115	0.004437	0.079828	0.079951	86.014650	16.093300	0.892879	100.605426	100.605426	100.605426	1.007056	1.044419	2.830000	0.231891	0.175850	62.227062
40.615860	0.004565	0.080972	0.081101	86.143977	16.378810	0.880737	100.398747	100.398747	100.398747	0.983961	1.090122	2.830000	0.228885	0.172784	62.089827
41.200912	0.004697	0.082133	0.082267	86.273117	16.671509	0.868741	100.193894	100.193894	100.193894	0.961452	1.137516	2.830000	0.225969	0.169751	61.940923
41.794392	0.004834	0.083310	0.083450	86.402073	16.971631	0.856891	99.990837	99.990837	99.990837	0.939516	1.186645	2.830000	0.223142	0.166749	61.779973
42.396421	0.004974	0.084504	0.084650	86.530849	17.279420	0.845186	99.789548	99.789548	99.789548	0.918140	1.237553	2.830000	0.220402	0.163779	61.606578
43.007121	0.005118	0.085714	0.085867	86.659448	17.595129	0.833624	99.589999	99.589999	99.589999	0.897311	1.290284	2.830000	0.217748	0.160840	61.420316
43.626619	0.005266	0.086942	0.087101	86.787873	17.919019	0.822205	99.392160	99.392160	99.392160	0.877016	1.344882	2.830000	0.215178	0.157933	61.220743
44.255040	0.005418	0.088187	0.088354	86.916126	18.251359	0.810926	99.196004	99.196004	99.196004	0.857242	1.401391	2.830000	0.212690	0.155057	61.007390
44.892513	0.005575	0.089450	0.089624	87.044212	18.592430	0.799788	99.001502	99.001502	99.001502	0.837977	1.459854	2.830000	0.210284	0.152212	60.779760
45.539168	0.005737	0.090731	0.090912	87.172131	18.942517	0.788787	98.808624	98.808624	98.808624	0.819208	1.520316	2.830000	0.207957	0.149399	60.537330
46.195138	0.005903	0.092029	0.092219	87.299888	19.301916	0.777925	98.617343	98.617343	98.617343	0.800925	1.582820	2.830000	0.205708	0.146618	60.279545
46.860558	0.006074	0.093346	0.093544	87.427484	19.670932	0.767198	98.427629	98.427629	98.427629	0.783115	1.647409	2.830000	0.203536	0.143867	60.005822
47.535562	0.006250	0.094682	0.094888	87.554922	20.049877	0.756606	98.239453	98.239453	98.239453	0.765766	1.714124	2.830000	0.201439	0.141148	59.715543
48.220290	0.006431	0.096037	0.096252	87.682204	20.439069	0.746147	98.052788	98.052788	98.052788	0.748868	1.783008	2.830000	0.199417	0.138460	59.408056
48.914880	0.006617	0.097410	0.097635	87.809333	20.838834	0.735821	97.867604	97.867604	97.867604	0.732410	1.854101	2.830000	0.197467	0.135804	59.082672
49.619476	0.006808	0.098803	0.099038	87.936309	21.249504	0.725626	97.683872	97.683872	97.683872	0.716379	1.927445	2.830000	0.195588	0.133180	58.738665
50.334221	0.007006	0.100216	0.100461	88.063137	21.671414	0.715560	97.501565	97.501565	97.501565	0.700767	2.003080	2.830000	0.193780	0.130587	58.375266
51.059262	0.007208	0.101649	0.101904	88.189816	22.104903	0.705622	97.320652	97.320652	97.320652	0.685562	2.081042	2.830000	0.192041	0.128026	57.991667
51.794747	0.007417	0.103101	0.103368	88.316349	22.550311	0.695812	97.141107	97.141107	97.141107	0.670755	2.161372	2.830000	0.190371	0.125497	57.587012
52.540826	0.007632	0.104574	0.104852	88.442738	23.007977	0.686127	96.962900	96.962900	96.962900	0.656334	2.244104	2.830000	0.188767	0.123001	57.160403
53.297652	0.007853	0.106068	0.106358	88.568984	23.478238	0.676567	96.786004	96.786004	96.786004	0.642292	2.329275	2.830000	0.187229	0.120537	56.710890
54.065379	0.008080	0.107583	0.107886	88.695089	23.961423	0.667129	96.610389	96.610389	96.610389	0.628617	2.416918	2.830000	0.185755	0.118107	56.237475
54.844166	0.008314	0.109119	0.109435	88.821053	24.457851	0.657814	96.436028	96.436028	96.436028	0.615301	2.507067	2.830000	0.184346	0.115709	55.739106
55.634170	0.008554	0.110676	0.111006	88.946879	24.967827	0.648618	96.262892	96.262892	96.262892	0.602334	2.599753	2.830000	0.183000	0.113346	55.214681
56.435554	0.008802	0.112256	0.112600	89.072567	25.491636	0.639542	96.090954	96.090954	96.090954	0.589707	2.695006	2.830000	0.181715	0.111017	54.663039
57.248482	0.009056	0.113857	0.114217	89.198119	26.029539	0.630584	95.920186	95.920186	95.920186	0.577412	2.792853	2.830000	0.180492	0.108723	54.082966
58.073119	0.009318	0.115481	0.115856	89.323535	26.581763	0.621743	95.750559	95.750559	95.750559	0.565440	2.893322	2.830000	0.179329	0.106464	53.473191
58.909635	0.009588	0.117127	0.117519	89.448816	27.148494	0.613016	95.582047	95.582047	95.582047	0.553783	2.996436	2.830000	0.178226	0.104242	52.832385
59.758201	0.009865	0.118797	0.119206	89.573964	27.729871	0.604404	95.414621	95.414621	95.414621	0.542432	3.102218	2.830000	0.177182	0.102056	52.159164
60.618990	0.010150	0.120490	0.120916	89.698978	28.325969	0.595904	95.248255	95.248255	95.248255	0.531379	3.210690	2.830000	0.176195	0.099908	51.452089
61.492178	0.010444	0.122206	0.122651	89.823859	28.936795	0.587516	95.082921	95.082921	95.082921	0.520616	3.321868	2.830000	0.175266	0.097799	50.709667
62.377944	0.010746	0.123946	0.124411	89.948608	29.562264	0.579237	94.918591	94.918591	94.918591	0.510137	3.435771	2.830000	0.174394	0.095730	49.930358
63.276469	0.011056	0.125710	0.126196	90.073225	30.202194	0.571068	94.755240	94.755240	94.755240	0.499932	3.552411	2.830000	0.173578	0.093702	49.112574
64.187937	0.011376	0.127499	0.128006	90.197711	30.856282	0.563006	94.592840	94.592840	94.592840	0.489996	3.671800	2.830000	0.172817	0.091716	48.254694
65.112534	0.011705	0.129313	0.129842	90.322065	31.524085	0.555050	94.431364	94.431364	94.431364	0.480320	3.793947	2.830000	0.172111	0.089773	47.355064
66.050449	0.012043	0.131152	0.131704	90.446288	32.205003	0.547199	94.270785	94.270785	94.270785	0.470898	3.918860	2.830000	0.171460	0.087875	46.412011
67.001875	0.012391	0.133016	0.133592	90.570379	32.898249	0.539453	94.111079	94.111079	94.111079	0.461723	4.046541	2.830000	0.170863	0.086023	45.423860
67.967006	0.012749	0.134906	0.135507	90.694340	33.602833	0.531808	93.952218	93.952218	93.952218	0.452787	4.176992	2.830000	0.170320	0.084219	44.388944
68.946038	0.013117	0.136822	0.137450	90.818168	34.317526	0.524265	93.794176	93.794176	93.794176	0.444086	4.310213	2.830000	0.169829	0.082465	43.305627
69.939174	0.013496	0.138765	0.139420	90.941865	35.040842	0.516822	93.636928	93.636928	93.636928	0.435612	4.446197	2.830000	0.169392	0.080763	42.172329
70.946615	0.013886	0.140734	0.141417	91.065429	35.771003	0.509478	93.480448	93.480448	93.480448	0.427358	4.584940	2.830000	0.169007	0.079114	40.987550
71.968567	0.014287	0.142730	0.143444	91.188860	36.505916	0.502232	93.324711	93.324711	93.324711	0.419320	4.726429	2.830000	0.168674	0.077522	39.749903
73.005241	0.014700	0.144754	0.145499	91.312159	37.243149	0.495081	93.169691	93.169691	93.169691	0.411490	4.870654	2.830000	0.168393	0.075987	38.458151
74.056847	0.015124	0.146806	0.147583	91.435323	37.979904	0.488027	93.015363	93.015363	93.015363	0.403863	5.017596	2.830000	0.168163	0.074513	37.111246
75.123601	0.015560	0.148885	0.149696	91.558352	38.713004	0.481066	92.861703	92.861703	92.861703	0.396434	5.167238	2.830000	0.167985	0.073102	35.708376
76.205721	0.016010	0.150993	0.151840	91.681246	39.438882	0.474198	92.708686	92.708686	92.708686	0.389197	5.319558	2.830000	0.167859	0.071757	34.249009
77.303429	0.016472	0.153130	0.154013	91.804003	40.153579	0.467422	92.556288	92.556288	92.556288	0.382146	5.474529	2.830000	0.167783	0.070479	32.732949
78.416948	0.016947	0.155296	0.156218	91.926622	40.852755	0.460736	92.404484	92.404484	92.404484	0.375277	5.632124	2.830000	0.167758	0.069273	31.160386
79.546508	0.017436	0.157491	0.158454	92.049102	41.531713	0.454140	92.253251	92.253251	92.253251	0.368583	5.792311	2.830000	0.167785	0.068141	29.531950
80.692338	0.017938	0.159717	0.160721	92.171442	42.185444	0.447632	92.102566	92.102566	92.102566	0.362061	5.955056	2.830000	0.167862	0.067085	27.848763
81.854673	0.018456	0.161972	0.163020	92.293641	42.808681	0.441212	91.952404	91.952404	91.952404	0.355704	6.120320	2.830000	0.167990	0.066108	26.112486
83.033751	0.018988	0.164258	0.165352	92.415697	43.395979	0.434877	91.802742	91.802742	91.802742	0.349509	6.288063	2.830000	0.168169	0.065213	24.325358
84.229813	0.019535	0.166574	0.167716	92.537608	43.941815	0.428627	91.653559	91.653559	91.653559	0.343470	6.458241	2.830000	0.168400	0.064403	22.490228
85.443104	0.020098	0.168922	0.170114	92.659373	44.440703	0.422461	91.504830	91.504830	91.504830	0.337584	6.630806	2.830000	0.168681	0.063680	20.610571
86.673872	0.020677	0.171302	0.172545	92.780990	44.887323	0.416378	91.356535	91.356535	91.356535	0.331845	6.805709	2.830000	0.169013	0.063047	18.690490
87.922369	0.021273	0.173713	0.175011	92.902457	45.276664	0.410377	91.208650	91.208650	91.208650	0.326249	6.982896	2.830000	0.169397	0.062505	16.734699
89.188849	0.021886	0.176157	0.177511	93.023772	45.604171	0.404456	91.061155	91.061155	91.061155	0.320792	7.162310	2.830000	0.169832	0.062056	14.748484
90.473572	0.022516	0.178634	0.180047	93.144933	45.865885	0.398614	90.914028	90.914028	90.914028	0.315470	7.343893	2.830000	0.170318	0.061702	12.737650
91.776802	0.023164	0.181143	0.182618	93.265938	46.058581	0.392852	90.767247	90.767247	90.767247	0.310278	7.527583	2.830000	0.170857	0.061443	10.708439
93.098803	0.023831	0.183686	0.185225	93.386785	46.179873	0.387166	90.620792	90.620792	90.620792	0.305213	7.713315	2.830000	0.171448	0.061282	8.667435
94.439848	0.024517	0.186262	0.187869	93.507471	46.228308	0.381557	90.474643	90.474643	90.474643	0.300271	7.901021	2.830000	0.172091	0.061218	6.621456
95.800210	0.025222	0.188873	0.190550	93.627994	46.203414	0.376024	90.328780	90.328780	90.328780	0.295449	8.090631	2.830000	0.172787	0.061251	4.577433
97.180167	0.025948	0.191518	0.193268	93.748350	46.105720	0.370565	90.183183	90.183183	90.183183	0.290741	8.282072	2.830000	0.173536	0.061381	2.542282
98.580001	0.026694	0.194198	0.196024	93.868538	45.936733	0.365180	90.037832	90.037832	90.037832	0.286146	8.475269	2.830000	0.174339	0.061606	0.522779
100.000000	0.027461	0.196913	0.198819	93.988555	45.698880	0.359867	89.892708	89.892708	89.892708	0.281659	8.670145	2.830000	0.175196	0.061927	-1.474556
101.440453	0.028251	0.199663	0.201652	94.108397	45.395424	0.354625	89.747794	89.747794	89.747794	0.277276	8.866620	2.830000	0.176107	0.062341	-3.443568
102.901655	0.029062	0.202450	0.204525	94.228061	45.030339	0.349454	89.603071	89.603071	89.603071	0.272996	9.064612	2.830000	0.177073	0.062847	-5.378562
104.383905	0.029897	0.205273	0.207438	94.347545	44.608186	0.344353	89.458520	89.458520	89.458520	0.268813	9.264036	2.830000	0.178094	0.063441	-7.274371
105.887506	0.030756	0.208132	0.210392	94.466845	44.133965	0.339320	89.314126	89.314126	89.314126	0.264726	9.464808	2.830000	0.179171	0.064123	-9.126411
107.412766	0.031639	0.211028	0.213387	94.585957	43.612970	0.334355	89.169871	89.169871	89.169871	0.260730	9.666840	2.830000	0.180304	0.064889	-10.930717
108.959997	0.032546	0.213962	0.216423	94.704878	43.050653	0.329457	89.025738	89.025738	89.025738	0.256824	9.870042	2.830000	0.181494	0.065737	-12.683952
110.529514	0.033480	0.216933	0.219502	94.823605	42.452488	0.324625	88.881712	88.881712	88.881712	0.253003	10.074324	2.830000	0.182742	0.066663	-14.383401
112.121640	0.034440	0.219942	0.222623	94.942133	41.823868	0.319858	88.737777	88.737777	88.737777	0.249265	10.279595	2.830000	0.184048	0.067665	-16.026956
113.736699	0.035428	0.222990	0.225787	95.060459	41.170000	0.315155	88.593918	88.593918	88.593918	0.245608	10.485761	2.830000	0.185413	0.068739	-17.613078
115.375023	0.036443	0.226076	0.228995	95.178579	40.495837	0.310516	88.450122	88.450122	88.450122	0.242028	10.692728	2.830000	0.186837	0.069884	-19.140759
117.036946	0.037487	0.229201	0.232247	95.296488	39.806015	0.305938	88.306373	88.306373	88.306373	0.238522	10.900402	2.830000	0.188322	0.071095	-20.609469
118.722808	0.038561	0.232366	0.235544	95.414182	39.104818	0.301423	88.162660	88.162660	88.162660	0.235089	11.108686	2.830000	0.189867	0.072370	-22.019110
120.432955	0.039665	0.235570	0.238886	95.531658	38.396154	0.296968	88.018968	88.018968	88.018968	0.231725	11.317486	2.830000	0.191474	0.073705	-23.369957
122.167735	0.040800	0.238814	0.242275	95.648910	37.683545	0.292573	87.875286	87.875286	87.875286	0.228428	11.526704	2.830000	0.193144	0.075099	-24.662611
123.927504	0.041967	0.242099	0.245709	95.765933	36.970128	0.288237	87.731603	87.731603	87.731603	0.225196	11.736245	2.830000	0.194876	0.076548	-25.897942
125.712621	0.043167	0.245424	0.249191	95.882724	36.258665	0.283960	87.587907	87.587907	87.587907	0.222025	11.946010	2.830000	0.196673	0.078050	-27.077046
127.523453	0.044401	0.248790	0.252721	95.999277	35.551565	0.279739	87.444188	87.444188	87.444188	0.218915	12.155905	2.830000	0.198534	0.079603	-28.201200
129.360368	0.045669	0.252197	0.256299	96.115587	34.850900	0.275576	87.300437	87.300437	87.300437	0.215861	12.365833	2.830000	0.200461	0.081203	-29.271821
131.223743	0.046973	0.255646	0.259925	96.231648	34.158432	0.271469	87.156645	87.156645	87.156645	0.212863	12.575698	2.830000	0.202454	0.082849	-30.290435
133.113960	0.048314	0.259136	0.263601	96.347457	33.475643	0.267416	87.012804	87.012804	87.012804	0.209918	12.785405	2.830000	0.204515	0.084539	-31.258640
135.031404	0.049692	0.262668	0.267327	96.463006	32.803754	0.263418	86.868906	86.868906	86.868906	0.207023	12.994859	2.830000	0.206644	0.086271	-32.178085
136.976468	0.051109	0.266243	0.271104	96.578291	32.143761	0.259474	86.724945	86.724945	86.724945	0.204178	13.203968	2.830000	0.208843	0.088042	-33.050446
138.949549	0.052566	0.269860	0.274932	96.693306	31.496454	0.255583	86.580915	86.580915	86.580915	0.201378	13.412639	2.830000	0.211111	0.089851	-33.877406
140.951052	0.054063	0.273519	0.278811	96.808046	30.862443	0.251744	86.436811	86.436811	86.436811	0.198624	13.620781	2.830000	0.213450	0.091697	-34.660639
142.981386	0.055602	0.277222	0.282743	96.922503	30.242181	0.247956	86.292629	86.292629	86.292629	0.195912	13.828304	2.830000	0.215862	0.093578	-35.401800
145.040966	0.057184	0.280968	0.286728	97.036673	29.635987	0.244219	86.148366	86.148366	86.148366	0.193241	14.035119	2.830000	0.218346	0.095492	-36.102512
147.130213	0.058810	0.284756	0.290766	97.150548	29.044060	0.240533	86.004019	86.004019	86.004019	0.190608	14.241141	2.830000	0.220904	0.097438	-36.764358
149.249555	0.060481	0.288589	0.294859	97.264123	28.466498	0.236895	85.859586	85.859586	85.859586	0.188013	14.446283	2.830000	0.223538	0.099415	-37.388878
151.399424	0.062199	0.292465	0.299006	97.377390	27.903316	0.233307	85.715068	85.715068	85.715068	0.185453	14.650464	2.830000	0.226247	0.101422	-37.977561
153.580262	0.063965	0.296385	0.303209	97.490344	27.354456	0.229766	85.570465	85.570465	85.570465	0.182927	14.853601	2.830000	0.229032	0.103457	-38.531843
155.792513	0.065779	0.300349	0.307467	97.602978	26.819800	0.226273	85.425778	85.425778	85.425778	0.180432	15.055616	2.830000	0.231896	0.105519	-39.053107
158.036631	0.067644	0.304356	0.311783	97.715284	26.299181	0.222826	85.281011	85.281011	85.281011	0.177967	15.256431	2.830000	0.234839	0.107608	-39.542678
160.313075	0.069560	0.308408	0.316155	97.827256	25.792391	0.219426	85.136165	85.136165	85.136165	0.175531	15.455973	2.830000	0.237861	0.109722	-40.001827
162.622309	0.071529	0.312504	0.320586	97.938886	25.299189	0.216071	84.991248	84.991248	84.991248	0.173122	15.654168	2.830000	0.240964	0.111861	-40.431767
164.964807	0.073552	0.316644	0.325074	98.050167	24.819309	0.212761	84.846263	84.846263	84.846263	0.170738	15.850947	2.830000	0.244150	0.114024	-40.833657
167.341048	0.075632	0.320828	0.329622	98.161092	24.352465	0.209496	84.701219	84.701219	84.701219	0.168378	16.046242	2.830000	0.247417	0.116210	-41.208603
169.751517	0.077768	0.325057	0.334230	98.271653	23.898356	0.206274	84.556124	84.556124	84.556124	0.166041	16.239989	2.830000	0.250769	0.118418	-41.557657
172.196708	0.079962	0.329329	0.338898	98.381842	23.456670	0.203095	84.410987	84.410987	84.410987	0.163724	16.432124	2.830000	0.254205	0.120648	-41.881820
174.677121	0.082217	0.333646	0.343626	98.491652	23.027089	0.199958	84.265819	84.265819	84.265819	0.161427	16.622589	2.830000	0.257728	0.122899	-42.182046
177.193263	0.084534	0.338006	0.348416	98.601074	22.609289	0.196864	84.120633	84.120633	84.120633	0.159148	16.811327	2.830000	0.261336	0.125170	-42.459241
179.745648	0.086913	0.342410	0.353269	98.710100	22.202947	0.193811	83.975441	83.975441	83.975441	0.156886	16.998283	2.830000	0.265033	0.127461	-42.714264
182.334800	0.089358	0.346858	0.358183	98.818723	21.807738	0.190798	83.830258	83.830258	83.830258	0.154640	17.183405	2.830000	0.268817	0.129770	-42.947935
184.961247	0.091869	0.351349	0.363162	98.926933	21.423341	0.187826	83.685102	83.685102	83.685102	0.152408	17.366645	2.830000	0.272692	0.132099	-43.161029
187.625527	0.094448	0.355884	0.368204	99.034722	21.049440	0.184894	83.539989	83.539989	83.539989	0.150189	17.547958	2.830000	0.276656	0.134445	-43.354283
190.328185	0.097097	0.360462	0.373310	99.142082	20.685721	0.182001	83.394939	83.394939	83.394939	0.147982	17.727299	2.830000	0.280711	0.136809	-43.528399
193.069773	0.099817	0.365082	0.378481	99.249004	20.331877	0.179146	83.249973	83.249973	83.249973	0.145785	17.904628	2.830000	0.284859	0.139190	-43.684042
195.850852	0.102611	0.369744	0.383718	99.355480	19.987610	0.176330	83.105112	83.105112	83.105112	0.143599	18.079909	2.830000	0.289099	0.141588	-43.821844
198.671992	0.105480	0.374448	0.389021	99.461499	19.652627	0.173551	82.960381	82.960381	82.960381	0.141421	18.253105	2.830000	0.293432	0.144001	-43.942405
201.533769	0.108426	0.379194	0.394391	99.567053	19.326641	0.170810	82.815805	82.815805	82.815805	0.139250	18.424185	2.830000	0.297859	0.146430	-44.046296
204.436768	0.111451	0.383981	0.399828	99.672134	19.009377	0.168105	82.671412	82.671412	82.671412	0.137086	18.593119	2.830000	0.302382	0.148874	-44.134061
207.381584	0.114556	0.388808	0.405333	99.776731	18.700565	0.165437	82.527230	82.527230	82.527230	0.134927	18.759881	2.830000	0.306999	0.151332	-44.206214
210.368818	0.117744	0.393675	0.410906	99.880835	18.399944	0.162804	82.383289	82.383289	82.383289	0.132774	18.924447	2.830000	0.311713	0.153805	-44.263248
213.399082	0.121017	0.398581	0.416548	99.984437	18.107262	0.160206	82.239623	82.239623	82.239623	0.130623	19.086795	2.830000	0.316523	0.156291	-44.305630
216.472995	0.124377	0.403526	0.422259	100.087527	17.822273	0.157644	82.096266	82.096266	82.096266	0.128476	19.246906	2.830000	0.321430	0.158790	-44.333805
219.591187	0.127825	0.408508	0.428040	100.190096	17.544743	0.155116	81.953252	81.953252	81.953252	0.126331	19.404764	2.830000	0.326434	0.161302	-44.348199
222.754295	0.131364	0.413527	0.433891	100.292134	17.274443	0.152622	81.810620	81.810620	81.810620	0.124187	19.560354	2.830000	0.331536	0.163826	-44.349216
225.962966	0.134996	0.418583	0.439813	100.393631	17.011152	0.150161	81.668411	81.668411	81.668411	0.122043	19.713667	2.830000	0.336736	0.166361	-44.337243
229.217857	0.138724	0.423673	0.445806	100.494578	16.754658	0.147734	81.526664	81.526664	81.526664	0.119899	19.864692	2.830000	0.342035	0.168908	-44.312650
232.519632	0.142548	0.428797	0.451871	100.594964	16.504756	0.145339	81.385425	81.385425	81.385425	0.117755	20.013422	2.830000	0.347432	0.171466	-44.275789
235.868968	0.146472	0.433955	0.458007	100.694779	16.261249	0.142977	81.244738	81.244738	81.244738	0.115608	20.159854	2.830000	0.352927	0.174033	-44.226998
239.266550	0.150497	0.439144	0.464216	100.794014	16.023945	0.140646	81.104650	81.104650	81.104650	0.113460	20.303984	2.830000	0.358521	0.176611	-44.166601
242.713072	0.154627	0.444363	0.470498	100.892658	15.792662	0.138348	80.965213	80.965213	80.965213	0.111309	20.445812	2.830000	0.364213	0.179197	-44.094907
246.209240	0.158862	0.449612	0.476853	100.990701	15.567223	0.136080	80.826476	80.826476	80.826476	0.109154	20.585341	2.830000	0.370004	0.181792	-44.012214
249.755769	0.163207	0.454889	0.483281	101.088133	15.347457	0.133843	80.688493	80.688493	80.688493	0.106996	20.722574	2.830000	0.375893	0.184395	-43.918807
253.353383	0.167662	0.460192	0.489782	101.184945	15.133200	0.131637	80.551321	80.551321	80.551321	0.104834	20.857516	2.830000	0.381879	0.187006	-43.814961
257.002820	0.172230	0.465519	0.496358	101.281125	14.924295	0.129461	80.415016	80.415016	80.415016	0.102667	20.990175	2.830000	0.387963	0.189624	-43.700940
260.704825	0.176914	0.470870	0.503008	101.376664	14.720589	0.127314	80.279639	80.279639	80.279639	0.100496	21.120560	2.830000	0.394144	0.192248	-43.576997
264.460155	0.181716	0.476241	0.509732	101.471551	14.521935	0.125197	80.145252	80.145252	80.145252	0.098319	21.248683	2.830000	0.400422	0.194878	-43.443378
268.269580	0.186639	0.481632	0.516530	101.565777	14.328193	0.123109	80.011918	80.011918	80.011918	0.096136	21.374555	2.830000	0.406794	0.197513	-43.300319
272.133877	0.191685	0.487041	0.523404	101.659331	14.139226	0.121050	79.879704	79.879704	79.879704	0.093948	21.498191	2.830000	0.413262	0.200152	-43.148050
276.053838	0.196855	0.492464	0.530352	101.752203	13.954904	0.119019	79.748678	79.748678	79.748678	0.091753	21.619606	2.830000	0.419824	0.202796	-42.986790
280.030263	0.202154	0.497901	0.537374	101.844382	13.775099	0.117016	79.618910	79.618910	79.618910	0.089553	21.738818	2.830000	0.426478	0.205443	-42.816755
284.063968	0.207583	0.503348	0.544472	101.935860	13.599692	0.115042	79.490472	79.490472	79.490472	0.087346	21.855844	2.830000	0.433224	0.208093	-42.638152
288.155776	0.213145	0.508803	0.551644	102.026626	13.428563	0.113094	79.363440	79.363440	79.363440	0.085133	21.970704	2.830000	0.440061	0.210745	-42.451182
292.306525	0.218842	0.514264	0.558891	102.116670	13.261601	0.111174	79.237890	79.237890	79.237890	0.082914	22.083419	2.830000	0.446987	0.213398	-42.256041
296.517063	0.224677	0.519728	0.566213	102.205982	13.098695	0.109281	79.113900	79.113900	79.113900	0.080688	22.194011	2.830000	0.454001	0.216052	-42.052920
300.788252	0.230653	0.525192	0.573609	102.294553	12.939742	0.107414	78.991551	78.991551	78.991551	0.078456	22.302503	2.830000	0.461101	0.218706	-41.842004
305.120965	0.236771	0.530653	0.581079	102.382372	12.784640	0.105574	78.870926	78.870926	78.870926	0.076218	22.408918	2.830000	0.468285	0.221359	-41.623474
309.516090	0.243034	0.536108	0.588623	102.469431	12.633290	0.103760	78.752110	78.752110	78.752110	0.073974	22.513281	2.830000	0.475553	0.224011	-41.397506
313.974523	0.249445	0.541554	0.596241	102.555719	12.485599	0.101971	78.635189	78.635189	78.635189	0.071723	22.615619	2.830000	0.482901	0.226661	-41.164273
318.497179	0.256006	0.546987	0.603932	102.641228	12.341476	0.100209	78.520252	78.520252	78.520252	0.069468	22.715958	2.830000	0.490327	0.229308	-40.923944
323.084981	0.262719	0.552403	0.611695	102.725948	12.200832	0.098471	78.407389	78.407389	78.407389	0.067207	22.814325	2.830000	0.497831	0.231951	-40.676683
327.738869	0.269587	0.557800	0.619531	102.809870	12.063583	0.096759	78.296693	78.296693	78.296693	0.064941	22.910748	2.830000	0.505408	0.234590	-40.422652
332.459793	0.276612	0.563173	0.627438	102.892986	11.929646	0.095071	78.188258	78.188258	78.188258	0.062670	23.005255	2.830000	0.513057	0.237224	-40.162011
337.248720	0.283797	0.568518	0.635416	102.975285	11.798943	0.093408	78.082179	78.082179	78.082179	0.060395	23.097877	2.830000	0.520776	0.239852	-39.894915
342.106630	0.291143	0.573831	0.643464	103.056761	11.671397	0.091769	77.978554	77.978554	77.978554	0.058116	23.188643	2.830000	0.528561	0.242473	-39.621516
347.034515	0.298653	0.579107	0.651582	103.137405	11.546933	0.090155	77.877482	77.877482	77.877482	0.055834	23.277583	2.830000	0.536410	0.245087	-39.341967
352.033384	0.306329	0.584342	0.659768	103.217207	11.425480	0.088564	77.779063	77.779063	77.779063	0.053549	23.364728	2.830000	0.544320	0.247692	-39.056414
357.104260	0.314173	0.589532	0.668021	103.296161	11.306970	0.086997	77.683400	77.683400	77.683400	0.051262	23.450109	2.830000	0.552288	0.250288	-38.765005
362.248179	0.322187	0.594670	0.676341	103.374258	11.191334	0.085453	77.590597	77.590597	77.590597	0.048973	23.533758	2.830000	0.560311	0.252874	-38.467882
367.466194	0.330372	0.599753	0.684726	103.451491	11.078508	0.083932	77.500756	77.500756	77.500756	0.046684	23.615706	2.830000	0.568385	0.255450	-38.165187
372.759372	0.338731	0.604774	0.693174	103.527853	10.968430	0.082435	77.413985	77.413985	77.413985	0.044394	23.695987	2.830000	0.576507	0.258013	-37.857062
378.128796	0.347265	0.609729	0.701686	103.603335	10.861039	0.080960	77.330391	77.330391	77.330391	0.042104	23.774631	2.830000	0.584674	0.260564	-37.543643
383.575563	0.355976	0.614611	0.710258	103.677932	10.756275	0.079508	77.250081	77.250081	77.250081	0.039816	23.851672	2.830000	0.592883	0.263102	-37.225067
389.100789	0.364865	0.619415	0.718889	103.751637	10.654083	0.078078	77.173163	77.173163	77.173163	0.037530	23.927143	2.830000	0.601128	0.265626	-36.901469
394.705603	0.373933	0.624135	0.727578	103.824442	10.554407	0.076670	77.099748	77.099748	77.099748	0.035246	24.001076	2.830000	0.609408	0.268134	-36.572983
400.391152	0.383181	0.628764	0.736323	103.896343	10.457193	0.075284	77.029946	77.029946	77.029946	0.032966	24.073505	2.830000	0.617717	0.270627	-36.239739
406.158599	0.392611	0.633295	0.745122	103.967332	10.362390	0.073920	76.963866	76.963866	76.963866	0.030691	24.144463	2.830000	0.626051	0.273103	-35.901869
412.009123	0.402223	0.637723	0.753972	104.037405	10.269948	0.072578	76.901621	76.901621	76.901621	0.028422	24.213983	2.830000	0.634408	0.275561	-35.559502
417.943921	0.412017	0.642040	0.762872	104.106555	10.179818	0.071257	76.843321	76.843321	76.843321	0.026159	24.282099	2.830000	0.642782	0.278001	-35.212764
423.964207	0.421995	0.646239	0.771819	104.174778	10.091953	0.069957	76.789078	76.789078	76.789078	0.023904	24.348844	2.830000	0.651169	0.280421	-34.861783
430.071212	0.432155	0.650313	0.780810	104.242069	10.006308	0.068678	76.739002	76.739002	76.739002	0.021657	24.414250	2.830000	0.659565	0.282822	-34.506682
436.266186	0.442499	0.654254	0.789844	104.308423	9.922838	0.067420	76.693205	76.693205	76.693205	0.019420	24.478353	2.830000	0.667966	0.285201	-34.147586
442.550395	0.453025	0.658054	0.798916	104.373836	9.841501	0.066182	76.651798	76.651798	76.651798	0.017194	24.541185	2.830000	0.676367	0.287558	-33.784616
448.925126	0.463734	0.661706	0.808025	104.438304	9.762254	0.064965	76.614889	76.614889	76.614889	0.014979	24.602779	2.830000	0.684764	0.289892	-33.417895
455.391681	0.474624	0.665202	0.817166	104.501823	9.685059	0.063768	76.582589	76.582589	76.582589	0.012778	24.663169	2.830000	0.693151	0.292203	-33.047541
461.951385	0.485693	0.668532	0.826337	104.564389	9.609874	0.062592	76.555006	76.555006	76.555006	0.010591	24.722388	2.830000	0.701525	0.294489	-32.673674
468.605578	0.496942	0.671689	0.835534	104.626000	9.536664	0.061435	76.532247	76.532247	76.532247	0.008419	24.780469	2.830000	0.709880	0.296749	-32.296410
475.355621	0.508367	0.674665	0.844754	104.686652	9.465392	0.060298	76.514417	76.514417	76.514417	0.006264	24.837446	2.830000	0.718212	0.298984	-31.915865
482.202895	0.519966	0.677449	0.853992	104.746342	9.396021	0.059180	76.501622	76.501622	76.501622	0.004126	24.893351	2.830000	0.726516	0.301191	-31.532155
489.148802	0.531738	0.680033	0.863244	104.805069	9.328517	0.058082	76.493963	76.493963	76.493963	0.002008	24.948218	2.830000	0.734787	0.303371	-31.145392
496.194760	0.543678	0.682408	0.872506	104.862830	9.262849	0.057002	76.491542	76.491542	76.491542	-0.000090	25.002080	2.830000	0.743021	0.305522	-30.755690
503.342213	0.555784	0.684565	0.881774	104.919623	9.198982	0.055942	76.494456	76.494456	76.494456	-0.002166	25.054969	2.830000	0.751213	0.307643	-30.363159
510.592621	0.568052	0.686494	0.891043	104.975447	9.136887	0.054901	76.502802	76.502802	76.502802	-0.004220	25.106919	2.830000	0.759356	0.309734	-29.967908
517.947468	0.580477	0.688186	0.900308	105.030299	9.076532	0.053878	76.516673	76.516673	76.516673	-0.006249	25.157962	2.830000	0.767448	0.311793	-29.570047
525.408258	0.593055	0.689631	0.909563	105.084180	9.017891	0.052874	76.536161	76.536161	76.536161	-0.008253	25.208130	2.830000	0.775482	0.313821	-29.169682
532.976517	0.605781	0.690819	0.918804	105.137088	8.960933	0.051888	76.561351	76.561351	76.561351	-0.010229	25.257457	2.830000	0.783454	0.315815	-28.766920
540.653794	0.618648	0.691740	0.928024	105.189022	8.905633	0.050920	76.592329	76.592329	76.592329	-0.012178	25.305976	2.830000	0.791359	0.317776	-28.361865
548.441658	0.631651	0.692385	0.937219	105.239981	8.851964	0.049969	76.629174	76.629174	76.629174	-0.014096	25.353718	2.830000	0.799192	0.319703	-27.954622
556.341702	0.644782	0.692743	0.946381	105.289967	8.799902	0.049037	76.671963	76.671963	76.671963	-0.015984	25.400716	2.830000	0.806947	0.321594	-27.545291
564.355543	0.658035	0.692805	0.955505	105.338977	8.749422	0.048122	76.720768	76.720768	76.720768	-0.017840	25.447003	2.830000	0.814621	0.323450	-27.133975
572.484820	0.671401	0.692562	0.964583	105.387013	8.700502	0.047225	76.775656	76.775656	76.775656	-0.019661	25.492611	2.830000	0.822207	0.325269	-26.720774
580.731195	0.684871	0.692002	0.973609	105.434075	8.653119	0.046345	76.836691	76.836691	76.836691	-0.021448	25.537573	2.830000	0.829702	0.327050	-26.305787
589.096355	0.698437	0.691116	0.982576	105.480163	8.607252	0.045481	76.903930	76.903930	76.903930	-0.023197	25.581921	2.830000	0.837100	0.328792	-25.889111
597.582011	0.712087	0.689896	0.991476	105.525277	8.562882	0.044635	76.977425	76.977425	76.977425	-0.024909	25.625689	2.830000	0.844397	0.330496	-25.470843
606.189899	0.725813	0.688330	1.000302	105.569418	8.519989	0.043805	77.057222	77.057222	77.057222	-0.026582	25.668908	2.830000	0.851587	0.332160	-25.051080
614.921780	0.739602	0.686411	1.009045	105.612587	8.478556	0.042992	77.143362	77.143362	77.143362	-0.028213	25.711611	2.830000	0.858665	0.333783	-24.629917
623.779440	0.753442	0.684129	1.017697	105.654785	8.438564	0.042195	77.235878	77.235878	77.235878	-0.029802	25.753831	2.830000	0.865627	0.335365	-24.207449
632.764690	0.767321	0.681475	1.026250	105.696012	8.399998	0.041414	77.334797	77.334797	77.334797	-0.031348	25.795602	2.830000	0.872469	0.336905	-23.783768
641.879368	0.781224	0.678440	1.034695	105.736270	8.362842	0.040649	77.440139	77.440139	77.440139	-0.032848	25.836955	2.830000	0.879184	0.338402	-23.358970
651.125339	0.795139	0.675018	1.043022	105.775559	8.327083	0.039899	77.551915	77.551915	77.551915	-0.034302	25.877925	2.830000	0.885770	0.339855	-22.933147
660.504493	0.809049	0.671200	1.051223	105.813880	8.292708	0.039166	77.670128	77.670128	77.670128	-0.035708	25.918544	2.830000	0.892220	0.341264	-22.506391
670.018750	0.822940	0.666978	1.059288	105.851235	8.259704	0.038447	77.794775	77.794775	77.794775	-0.037064	25.958846	2.830000	0.898530	0.342627	-22.078796
679.670056	0.836794	0.662347	1.067206	105.887624	8.228061	0.037744	77.925842	77.925842	77.925842	-0.038370	25.998866	2.830000	0.904695	0.343945	-21.650455
689.460384	0.850594	0.657301	1.074967	105.923048	8.197768	0.037056	78.063305	78.063305	78.063305	-0.039622	26.038637	2.830000	0.910712	0.345216	-21.221461
699.391737	0.864323	0.651833	1.082561	105.957508	8.168817	0.036382	78.207131	78.207131	78.207131	-0.040821	26.078193	2.830000	0.916574	0.346439	-20.791910
709.466146	0.877961	0.645939	1.089978	105.991004	8.141200	0.035724	78.357277	78.357277	78.357277	-0.041965	26.117569	2.830000	0.922278	0.347615	-20.361895
719.685673	0.891488	0.639615	1.097205	106.023538	8.114910	0.035079	78.513689	78.513689	78.513689	-0.043052	26.156800	2.830000	0.927820	0.348741	-19.931513
730.052407	0.904886	0.632859	1.104232	106.055110	8.089942	0.034449	78.676301	78.676301	78.676301	-0.044080	26.195922	2.830000	0.933193	0.349817	-19.500863
740.568469	0.918132	0.625668	1.111048	106.085720	8.066293	0.033833	78.845035	78.845035	78.845035	-0.045049	26.234969	2.830000	0.938395	0.350843	-19.070046
751.236010	0.931206	0.618041	1.117639	106.115367	8.043958	0.033231	79.019802	79.019802	79.019802	-0.045956	26.273978	2.830000	0.943420	0.351817	-18.639163
762.057212	0.944084	0.609977	1.123996	106.144053	8.022937	0.032643	79.200499	79.200499	79.200499	-0.046800	26.312986	2.830000	0.948265	0.352739	-18.208320
773.034288	0.956744	0.601479	1.130104	106.171777	8.003229	0.032068	79.387008	79.387008	79.387008	-0.047580	26.352030	2.830000	0.952923	0.353607	-17.777626
784.169484	0.969162	0.592548	1.135952	106.198539	7.984834	0.031506	79.579198	79.579198	79.579198	-0.048294	26.391146	2.830000	0.957392	0.354422	-17.347195
795.465078	0.981315	0.583187	1.141528	106.224336	7.967755	0.030957	79.776924	79.776924	79.776924	-0.048941	26.430373	2.830000	0.961667	0.355182	-16.917144
806.923378	0.993178	0.573403	1.146818	106.249170	7.951996	0.030422	79.980024	79.980024	79.980024	-0.049519	26.469748	2.830000	0.965743	0.355885	-16.487596
818.546731	1.004726	0.563201	1.151811	106.273037	7.937561	0.029899	80.188320	80.188320	80.188320	-0.050026	26.509312	2.830000	0.969616	0.356533	-16.058681
830.337512	1.015934	0.552589	1.156493	106.295937	7.924458	0.029389	80.401618	80.401618	80.401618	-0.050462	26.549102	2.830000	0.973281	0.357122	-15.630534
842.298134	1.026776	0.541577	1.160851	106.317867	7.912693	0.028891	80.619705	80.619705	80.619705	-0.050824	26.589159	2.830000	0.976734	0.357653	-15.203299
854.431043	1.037228	0.530175	1.164873	106.338826	7.902277	0.028405	80.842351	80.842351	80.842351	-0.051111	26.629523	2.830000	0.979972	0.358125	-14.777130
866.738721	1.047264	0.518399	1.168545	106.358810	7.893220	0.027932	81.069307	81.069307	81.069307	-0.051321	26.670234	2.830000	0.982989	0.358536	-14.352188
879.223685	1.056857	0.506260	1.171856	106.377816	7.885534	0.027470	81.300302	81.300302	81.300302	-0.051454	26.711334	2.830000	0.985781	0.358885	-13.928648
891.888489	1.065984	0.493778	1.174793	106.395841	7.879234	0.027020	81.535048	81.535048	81.535048	-0.051507	26.752864	2.830000	0.988344	0.359172	-13.506695
904.735724	1.074618	0.480970	1.177343	106.412882	7.874335	0.026581	81.773233	81.773233	81.773233	-0.051479	26.794865	2.830000	0.990674	0.359395	-13.086528
917.768017	1.082736	0.467857	1.179494	106.428933	7.870855	0.026153	82.014526	82.014526	82.014526	-0.051369	26.837380	2.830000	0.992768	0.359554	-12.668363
930.988035	1.090313	0.454462	1.181236	106.443992	7.868811	0.025737	82.258570	82.258570	82.258570	-0.051175	26.880449	2.830000	0.994620	0.359648	-12.252431
944.398480	1.097326	0.440808	1.182555	106.458052	7.868225	0.025331	82.504987	82.504987	82.504987	-0.050896	26.924116	2.830000	0.996227	0.359675	-11.838982
958.002097	1.103754	0.426925	1.183443	106.471110	7.869116	0.024936	82.753377	82.753377	82.753377	-0.050530	26.968420	2.830000	0.997585	0.359634	-11.428286
971.801667	1.109574	0.412839	1.183888	106.483159	7.871510	0.024551	83.003311	83.003311	83.003311	-0.050077	27.013405	2.830000	0.998691	0.359524	-11.020638
985.800014	1.114768	0.398582	1.183881	106.494195	7.875429	0.024177	83.254340	83.254340	83.254340	-0.049536	27.059110	2.830000	0.999541	0.359346	-10.616353
1000.000000	1.119316	0.384188	1.183414	106.504212	7.880899	0.023813	83.505987	83.505987	83.505987	-0.048904	27.105574	2.830000	1.000131	0.359096	-10.215776
1014.404530	1.123203	0.369691	1.182479	106.513205	7.887947	0.023458	83.757750	83.757750	83.757750	-0.048182	27.152835	2.830000	1.000460	0.358775	-9.819281
1029.016551	1.126414	0.355129	1.181069	106.521168	7.896599	0.023113	84.009102	84.009102	84.009102	-0.047369	27.200931	2.830000	1.000524	0.358382	-9.427274
1043.839051	1.128935	0.340541	1.179179	106.528095	7.906884	0.022778	84.259489	84.259489	84.259489	-0.046464	27.249895	2.830000	1.000320	0.357916	-9.040194
1058.875063	1.130758	0.325967	1.176804	106.533983	7.918830	0.022451	84.508333	84.508333	84.508333	-0.045467	27.299759	2.830000	0.999848	0.357376	-8.658519
1074.127661	1.131874	0.311450	1.173942	106.538827	7.932463	0.022134	84.755030	84.755030	84.755030	-0.044377	27.350551	2.830000	0.999105	0.356762	-8.282766
1089.599965	1.132278	0.297036	1.170591	106.542623	7.947812	0.021825	84.998952	84.998952	84.998952	-0.043194	27.402295	2.830000	0.998090	0.356073	-7.913495
1105.295141	1.131969	0.282768	1.166752	106.545368	7.964902	0.021525	85.239445	85.239445	85.239445	-0.041920	27.455010	2.830000	0.996804	0.355309	-7.551312
1121.216399	1.130948	0.268695	1.162429	106.547062	7.983758	0.021233	85.475836	85.475836	85.475836	-0.040554	27.508708	2.830000	0.995246	0.354470	-7.196872
1137.366994	1.129220	0.254864	1.157624	106.547705	8.004400	0.020949	85.707428	85.707428	85.707428	-0.039098	27.563396	2.830000	0.993418	0.353556	-6.850880
1153.750232	1.126794	0.241325	1.152346	106.547298	8.026845	0.020673	85.933505	85.933505	85.933505	-0.037554	27.619072	2.830000	0.991323	0.352567	-6.514096
1170.369462	1.123682	0.228126	1.146604	106.545846	8.051108	0.020404	86.153337	86.153337	86.153337	-0.035922	27.675724	2.830000	0.988963	0.351504	-6.187334
1187.228084	1.119900	0.215317	1.140411	106.543356	8.077194	0.020143	86.366179	86.366179	86.366179	-0.034207	27.733328	2.830000	0.986343	0.350369	-5.871464
1204.329547	1.115470	0.202949	1.133782	106.539838	8.105103	0.019888	86.571273	86.571273	86.571273	-0.032411	27.791848	2.830000	0.983469	0.349163	-5.567417
1221.677349	1.110417	0.191069	1.126736	106.535307	8.134825	0.019640	86.767860	86.767860	86.767860	-0.030537	27.851233	2.830000	0.980349	0.347887	-5.276176
1239.275037	1.104770	0.179726	1.119293	106.529781	8.166337	0.019398	86.955177	86.955177	86.955177	-0.028591	27.911416	2.830000	0.976991	0.346545	-4.998782
1257.126212	1.098563	0.168967	1.111481	106.523283	8.199607	0.019162	87.132465	87.132465	87.132465	-0.026578	27.972310	2.830000	0.973407	0.345139	-4.736328
1275.234525	1.091835	0.158838	1.103328	106.515841	8.234582	0.018932	87.298979	87.298979	87.298979	-0.024503	28.033807	2.830000	0.969609	0.343673	-4.489953
1293.603680	1.084630	0.149381	1.094868	106.507493	8.271195	0.018707	87.453990	87.453990	87.453990	-0.022375	28.095775	2.830000	0.965612	0.342151	-4.260835
1312.237433	1.076995	0.140636	1.086139	106.498279	8.309355	0.018487	87.596795	87.596795	87.596795	-0.020200	28.158057	2.830000	0.961434	0.340580	-4.050182
1331.139597	1.068984	0.132642	1.077182	106.488250	8.348948	0.018272	87.726730	87.726730	87.726730	-0.017989	28.220467	2.830000	0.957095	0.338965	-3.859218
1350.314038	1.060652	0.125432	1.068043	106.477466	8.389832	0.018060	87.843173	87.843173	87.843173	-0.015751	28.282790	2.830000	0.952618	0.337313	-3.689164
1369.764677	1.052062	0.119035	1.058774	106.465994	8.431836	0.017853	87.945561	87.945561	87.945561	-0.013497	28.344777	2.830000	0.948027	0.335633	-3.541221
1389.495494	1.043277	0.113475	1.049431	106.453911	8.474754	0.017649	88.033398	88.033398	88.033398	-0.011241	28.406147	2.830000	0.943351	0.333933	-3.416540
1409.510524	1.034368	0.108772	1.040071	106.441308	8.518346	0.017448	88.106269	88.106269	88.106269	-0.008994	28.466584	2.830000	0.938620	0.332224	-3.316194
1429.813862	1.025405	0.104939	1.030760	106.428281	8.562330	0.017249	88.163852	88.163852	88.163852	-0.006773	28.525737	2.830000	0.933868	0.330517	-3.241144
1450.409659	1.016463	0.101983	1.021566	106.414943	8.606390	0.017052	88.205934	88.205934	88.205934	-0.004592	28.583225	2.830000	0.929132	0.328825	-3.192197
1471.302129	1.007619	0.099904	1.012559	106.401413	8.650167	0.016858	88.232419	88.232419	88.232419	-0.002467	28.638632	2.830000	0.924450	0.327161	-3.169962
1492.495545	0.998950	0.098695	1.003814	106.387822	8.693262	0.016664	88.243346	88.243346	88.243346	-0.000416	28.691518	2.830000	0.919863	0.325539	-3.174806
1513.994242	0.990538	0.098340	0.995407	106.374311	8.735243	0.016471	88.238902	88.238902	88.238902	0.001543	28.741421	2.830000	0.915413	0.323975	-3.206802
1535.802619	0.982459	0.098818	0.987416	106.361031	8.775645	0.016279	88.219427	88.219427	88.219427	0.003394	28.787864	2.830000	0.911146	0.322483	-3.265678
1557.925134	0.974794	0.100095	0.979920	106.348136	8.813979	0.016087	88.185434	88.185434	88.185434	0.005116	28.830368	2.830000	0.907105	0.321081	-3.350775
1580.366314	0.967619	0.102133	0.972994	106.335788	8.849739	0.015895	88.137608	88.137608	88.137608	0.006694	28.868459	2.830000	0.903337	0.319783	-3.461000
1603.130749	0.961007	0.104883	0.966714	106.324150	8.882420	0.015702	88.076818	88.076818	88.076818	0.008110	28.901683	2.830000	0.899883	0.318607	-3.594796
1626.223094	0.955030	0.108287	0.961150	106.313384	8.911523	0.015508	88.004117	88.004117	88.004117	0.009347	28.929621	2.830000	0.896788	0.317566	-3.750118
1649.648074	0.949753	0.112280	0.956367	106.303648	8.936580	0.015313	87.920742	87.920742	87.920742	0.010391	28.951904	2.830000	0.894092	0.316676	-3.924425
1673.410480	0.945236	0.116787	0.952424	106.295091	8.957163	0.015117	87.828106	87.828106	87.828106	0.011230	28.968228	2.830000	0.891829	0.315948	-4.114696
1697.515172	0.941532	0.121727	0.949368	106.287850	8.972909	0.014919	87.727794	87.727794	87.727794	0.011852	28.978371	2.830000	0.890032	0.315394	-4.317458
1721.967081	0.938685	0.127011	0.947239	106.282048	8.983531	0.014719	87.621545	87.621545	87.621545	0.012250	28.982207	2.830000	0.888726	0.315021	-4.528841
1746.771208	0.936730	0.132543	0.946061	106.277784	8.988836	0.014518	87.511233	87.511233	87.511233	0.012419	28.979716	2.830000	0.887930	0.314835	-4.744654
1771.932627	0.935693	0.138222	0.945847	106.275135	8.988738	0.014316	87.398846	87.398846	87.398846	0.012358	28.970994	2.830000	0.887656	0.314838	-4.960475
1797.456484	0.935587	0.143941	0.946595	106.274150	8.983265	0.014112	87.286455	87.286455	87.286455	0.012068	28.956256	2.830000	0.887906	0.315030	-5.171769
1823.348001	0.936414	0.149593	0.948287	106.274850	8.972563	0.013906	87.176185	87.176185	87.176185	0.011557	28.935842	2.830000	0.888676	0.315406	-5.373998
1849.612473	0.938161	0.155065	0.950889	106.277221	8.956894	0.013700	87.070175	87.070175	87.070175	0.010834	28.910203	2.830000	0.889949	0.315958	-5.562753
1876.255272	0.940803	0.160246	0.954353	106.281220	8.936631	0.013493	86.970541	86.970541	86.970541	0.009912	28.879902	2.830000	0.891704	0.316674	-5.733876
1903.281848	0.944301	0.165028	0.958613	106.286769	8.912248	0.013285	86.879339	86.879339	86.879339	0.008809	28.845595	2.830000	0.893906	0.317541	-5.883568
1930.697729	0.948602	0.169302	0.963591	106.293761	8.884303	0.013077	86.798517	86.798517	86.798517	0.007547	28.808017	2.830000	0.896514	0.318539	-6.008497
1958.508523	0.953636	0.172969	0.969195	106.302057	8.853421	0.012869	86.729880	86.729880	86.729880	0.006147	28.767961	2.830000	0.899479	0.319650	-6.105874
1986.719919	0.959322	0.175934	0.975321	106.311495	8.820277	0.012663	86.675046	86.675046	86.675046	0.004639	28.726260	2.830000	0.902744	0.320852	-6.173512
2015.337686	0.965564	0.178113	0.981854	106.321888	8.785573	0.012457	86.635409	86.635409	86.635409	0.003049	28.683766	2.830000	0.906248	0.322119	-6.209865
2044.367679	0.972254	0.179433	0.988673	106.333032	8.750024	0.012254	86.612108	86.612108	86.612108	0.001409	28.641330	2.830000	0.909923	0.323428	-6.214043
2073.815835	0.979272	0.179835	0.995648	106.344709	8.714337	0.012053	86.605990	86.605990	86.605990	-0.000251	28.599782	2.830000	0.913698	0.324752	-6.185806
2103.688178	0.986490	0.179277	1.002648	106.356691	8.679198	0.011854	86.617590	86.617590	86.617590	-0.001898	28.559918	2.830000	0.917501	0.326067	-6.125542
2133.990819	0.993770	0.177732	1.009538	106.368747	8.645261	0.011659	86.647108	86.647108	86.647108	-0.003500	28.522483	2.830000	0.921259	0.327347	-6.034237
2164.729954	1.000971	0.175193	1.016187	106.380645	8.613136	0.011468	86.694394	86.694394	86.694394	-0.005027	28.488162	2.830000	0.924899	0.328568	-5.913425
2195.911873	1.007948	0.171673	1.022464	106.392156	8.583382	0.011281	86.758942	86.758942	86.758942	-0.006450	28.457571	2.830000	0.928351	0.329707	-5.765147
2227.542952	1.014557	0.167209	1.028243	106.403063	8.556506	0.011098	86.839882	86.839882	86.839882	-0.007739	28.431250	2.830000	0.931547	0.330742	-5.591897
2259.629662	1.020656	0.161856	1.033410	106.413158	8.532955	0.010921	86.935991	86.935991	86.935991	-0.008870	28.409661	2.830000	0.934424	0.331655	-5.396573
2292.178566	1.026112	0.155693	1.037856	106.422250	8.513116	0.010748	87.045696	87.045696	87.045696	-0.009820	28.393181	2.830000	0.936926	0.332428	-5.182435
2325.196322	1.030801	0.148819	1.041488	106.430166	8.497315	0.010581	87.167098	87.167098	87.167098	-0.010570	28.382103	2.830000	0.939002	0.333046	-4.953057
2358.689683	1.034614	0.141356	1.044226	106.436753	8.485815	0.010420	87.297992	87.297992	87.297992	-0.011103	28.376632	2.830000	0.940608	0.333498	-4.712294
2392.665500	1.037460	0.133439	1.046007	106.441884	8.478815	0.010264	87.435902	87.435902	87.435902	-0.011408	28.376884	2.830000	0.941712	0.333773	-4.464244
2427.130723	1.039269	0.125225	1.046786	106.445460	8.476445	0.010113	87.578115	87.578115	87.578115	-0.011476	28.382879	2.830000	0.942289	0.333866	-4.213213
2462.092401	1.039994	0.116881	1.046541	106.447408	8.478764	0.009968	87.721735	87.721735	87.721735	-0.011306	28.394540	2.830000	0.942324	0.333775	-3.963681
2497.557686	1.039617	0.108581	1.045272	106.447690	8.485753	0.009829	87.863732	87.863732	87.863732	-0.010899	28.411686	2.830000	0.941817	0.333500	-3.720260
2533.533832	1.038149	0.100508	1.043003	106.446303	8.497310	0.009695	88.001011	88.001011	88.001011	-0.010264	28.434026	2.830000	0.940776	0.333047	-3.487645
2570.028197	1.035630	0.092841	1.039783	106.443281	8.513239	0.009565	88.130481	88.130481	88.130481	-0.009413	28.461148	2.830000	0.939226	0.332423	-3.270546
2607.048246	1.032132	0.085755	1.035689	106.438701	8.533240	0.009440	88.249139	88.249139	88.249139	-0.008366	28.492517	2.830000	0.937203	0.331644	-3.073609
2644.601552	1.027760	0.079415	1.030824	106.432681	8.556900	0.009320	88.354158	88.354158	88.354158	-0.007147	28.527463	2.830000	0.934758	0.330727	-2.901306
2682.695795	1.022646	0.073965	1.025317	106.425386	8.583683	0.009203	88.442984	88.442984	88.442984	-0.005789	28.565182	2.830000	0.931957	0.329695	-2.757800
2721.338768	1.016950	0.069532	1.019324	106.417023	8.612923	0.009089	88.513433	88.513433	88.513433	-0.004328	28.604732	2.830000	0.928878	0.328576	-2.646776
2760.538375	1.010856	0.066208	1.013022	106.407847	8.643823	0.008977	88.563796	88.563796	88.563796	-0.002807	28.645044	2.830000	0.925613	0.327401	-2.571254
2800.302634	1.004566	0.064057	1.006606	106.398153	8.675460	0.008867	88.592937	88.592937	88.592937	-0.001270	28.684937	2.830000	0.922265	0.326208	-2.533363
2840.639679	0.998295	0.063103	1.000287	106.388270	8.706800	0.008759	88.600379	88.600379	88.600379	0.000231	28.723147	2.830000	0.918945	0.325033	-2.534116
2881.557759	0.992263	0.063329	0.994281	106.378558	8.736729	0.008651	88.586384	88.586384	88.586384	0.001647	28.758369	2.830000	0.915769	0.323920	-2.573190
2923.065245	0.986688	0.064678	0.988806	106.369385	8.764095	0.008543	88.551999	88.551999	88.551999	0.002925	28.789313	2.830000	0.912855	0.322908	-2.648737
2965.170628	0.981779	0.067049	0.984065	106.361123	8.787761	0.008435	88.499083	88.499083	88.499083	0.004019	28.814767	2.830000	0.910315	0.322039	-2.757257
3007.882518	0.977722	0.070297	0.980246	106.354122	8.806681	0.008326	88.430291	88.430291	88.430291	0.004885	28.833681	2.830000	0.908252	0.321347	-2.893577
3051.209653	0.974680	0.074243	0.977503	106.348694	8.819972	0.008215	88.349015	88.349015	88.349015	0.005488	28.845238	2.830000	0.906754	0.320863	-3.050943
3095.160895	0.972773	0.078673	0.975949	106.345091	8.826986	0.008103	88.259287	88.259287	88.259287	0.005803	28.848934	2.830000	0.905886	0.320608	-3.221257
3139.745234	0.972083	0.083347	0.975650	106.343486	8.827380	0.007989	88.165623	88.165623	88.165623	0.005817	28.844631	2.830000	0.905687	0.320593	-3.395456
3184.971790	0.972639	0.088011	0.976612	106.343959	8.821157	0.007874	88.072842	88.072842	88.072842	0.005531	28.832595	2.830000	0.906164	0.320820	-3.564005
3230.849813	0.974415	0.092400	0.978786	106.346489	8.808681	0.007757	87.985838	87.985838	87.985838	0.004960	28.813502	2.830000	0.907292	0.321274	-3.717475
3277.388687	0.977329	0.096260	0.982058	106.350944	8.790671	0.007640	87.909339	87.909339	87.909339	0.004134	28.788414	2.830000	0.909015	0.321932	-3.847134
3324.597932	0.981246	0.099352	0.986263	106.357094	8.768152	0.007521	87.847653	87.847653	87.847653	0.003096	28.758717	2.830000	0.911243	0.322759	-3.945503
3372.487204	0.985974	0.101468	0.991181	106.364614	8.742391	0.007403	87.804420	87.804420	87.804420	0.001901	28.726048	2.830000	0.913860	0.323710	-4.006823
3421.066299	0.991277	0.102446	0.996557	106.373104	8.714813	0.007286	87.782401	87.782401	87.782401	0.000610	28.692191	2.830000	0.916729	0.324734	-4.027383
3470.345152	0.996885	0.102177	1.002107	106.382113	8.686916	0.007169	87.783286	87.783286	87.783286	-0.000706	28.658974	2.830000	0.919698	0.325777	-4.005704
3520.333844	1.002499	0.100614	1.007536	106.391161	8.660183	0.007055	87.807572	87.807572	87.807572	-0.001977	28.628173	2.830000	0.922607	0.326783	-3.942577
3571.042600	1.007816	0.097783	1.012549	106.399764	8.636009	0.006943	87.854484	87.854484	87.854484	-0.003135	28.601418	2.830000	0.925301	0.327698	-3.840972
3622.481792	1.012539	0.093779	1.016872	106.407461	8.615634	0.006835	87.921973	87.921973	87.921973	-0.004117	28.580113	2.830000	0.927634	0.328473	-3.705854
3674.661941	1.016394	0.088773	1.020264	106.413840	8.600094	0.006730	88.006779	88.006779	88.006779	-0.004868	28.565377	2.830000	0.929476	0.329066	-3.543919
3727.593720	1.019155	0.082996	1.022529	106.418553	8.590179	0.006629	88.104559	88.104559	88.104559	-0.005345	28.557995	2.830000	0.930726	0.329446	-3.363296
3781.287957	1.020654	0.076737	1.023535	106.421343	8.586404	0.006532	88.210087	88.210087	88.210087	-0.005521	28.558374	2.830000	0.931312	0.329591	-3.173199
3835.755635	1.020797	0.070324	1.023216	106.422053	8.588979	0.006440	88.317514	88.317514	88.317514	-0.005384	28.566521	2.830000	0.931199	0.329492	-2.983560
3891.007893	1.019575	0.064104	1.021589	106.420645	8.597781	0.006351	88.420685	88.420685	88.420685	-0.004941	28.582017	2.830000	0.930392	0.329155	-2.804602
3947.056035	1.017071	0.058424	1.018748	106.417207	8.612342	0.006266	88.513504	88.513504	88.513504	-0.004217	28.604009	2.830000	0.928941	0.328598	-2.646369
4003.911523	1.013456	0.053603	1.014873	106.411960	8.631826	0.006184	88.590337	88.590337	88.590337	-0.003258	28.631212	2.830000	0.926938	0.327856	-2.518166
4061.585988	1.008986	0.049912	1.010219	106.405250	8.655037	0.006105	88.646423	88.646423	88.646423	-0.002124	28.661935	2.830000	0.924515	0.326977	-2.427931
4120.091227	1.003984	0.047548	1.005109	106.397547	8.680441	0.006028	88.678279	88.678279	88.678279	-0.000894	28.694142	2.830000	0.921841	0.326020	-2.381535
4179.439206	0.998825	0.046613	0.999912	106.389415	8.706226	0.005952	88.684059	88.684059	88.684059	0.000344	28.725550	2.830000	0.919110	0.325055	-2.382069
4239.642065	0.993905	0.047108	0.995020	106.381482	8.730414	0.005877	88.663825	88.663825	88.663825	0.001498	28.753782	2.830000	0.916532	0.324154	-2.429213
4300.712118	0.989611	0.048919	0.990820	106.374394	8.751011	0.005801	88.619697	88.619697	88.619697	0.002477	28.776561	2.830000	0.914313	0.323391	-2.518795
4362.661857	0.986294	0.051823	0.987654	106.368756	8.766208	0.005725	88.555825	88.555825	88.555825	0.003201	28.791946	2.830000	0.912639	0.322831	-2.642708
4425.503952	0.984229	0.055502	0.985793	106.365071	8.774601	0.005647	88.478172	88.478172	88.478172	0.003607	28.798563	2.830000	0.911655	0.322522	-2.789291
4489.251258	0.983594	0.059561	0.985396	106.363680	8.775385	0.005568	88.394091	88.394091	88.394091	0.003661	28.795814	2.830000	0.911450	0.322493	-2.944236
4553.916814	0.984444	0.063564	0.986494	106.364717	8.768499	0.005487	88.311713	88.311713	88.311713	0.003359	28.783998	2.830000	0.912042	0.322746	-3.091966
4619.513847	0.986701	0.067067	0.988978	106.368078	8.754675	0.005405	88.239206	88.239206	88.239206	0.002733	28.764336	2.830000	0.913372	0.323256	-3.217323
4686.055775	0.990152	0.069661	0.992599	106.373426	8.735375	0.005322	88.183956	88.183956	88.183956	0.001845	28.738866	2.830000	0.915308	0.323970	-3.307288
4753.556208	0.994462	0.071016	0.996995	106.380219	8.712634	0.005239	88.151788	88.151788	88.151788	0.000785	28.710233	2.830000	0.917655	0.324816	-3.352475
4822.028953	0.999204	0.070916	1.001717	106.387760	8.688822	0.005157	88.146300	88.146300	88.146300	-0.000338	28.681402	2.830000	0.920174	0.325706	-3.348173
4891.488015	1.003891	0.069289	1.006280	106.395273	8.666392	0.005076	88.168393	88.168393	88.168393	-0.001408	28.655346	2.830000	0.922606	0.326549	-3.294817
4961.947603	1.008032	0.066223	1.010205	106.401980	8.647626	0.004998	88.216075	88.216075	88.216075	-0.002313	28.634736	2.830000	0.924696	0.327257	-3.197905
5033.422128	1.011178	0.061966	1.013075	106.407180	8.634417	0.004922	88.284550	88.284550	88.284550	-0.002957	28.621685	2.830000	0.926226	0.327758	-3.067425
5105.926210	1.012979	0.056906	1.014576	106.410325	8.628100	0.004850	88.366614	88.366614	88.366614	-0.003271	28.617535	2.830000	0.927032	0.327998	-2.916916
5179.474679	1.013231	0.051535	1.014541	106.411078	8.629323	0.004781	88.453332	88.453332	88.453332	-0.003218	28.622720	2.830000	0.927025	0.327952	-2.762256
5254.082580	1.011905	0.046397	1.012968	106.409358	8.637960	0.004715	88.534959	88.534959	88.534959	-0.002804	28.636687	2.830000	0.926206	0.327624	-2.620221
5329.765172	1.009163	0.042025	1.010038	106.405365	8.653071	0.004652	88.602026	88.602026	88.602026	-0.002075	28.657883	2.830000	0.924670	0.327052	-2.506845
5406.537936	1.005349	0.038873	1.006101	106.399577	8.672926	0.004592	88.646499	88.646499	88.646499	-0.001117	28.683842	2.830000	0.922603	0.326303	-2.435622
5484.416576	1.000954	0.037251	1.001647	106.392716	8.695104	0.004533	88.662901	88.662901	88.662901	-0.000049	28.711371	2.830000	0.920263	0.325471	-2.415634
5563.417021	0.996559	0.037277	0.997256	106.385681	8.716717	0.004475	88.649212	88.649212	88.649212	0.000992	28.736881	2.830000	0.917958	0.324664	-2.449852
5643.555431	0.992761	0.038850	0.993520	106.379438	8.734761	0.004416	88.607407	88.607407	88.607407	0.001865	28.756842	2.830000	0.916003	0.323993	-2.533953
5724.848197	0.990091	0.041652	0.990966	106.374884	8.746574	0.004357	88.543469	88.543469	88.543469	0.002446	28.768335	2.830000	0.914678	0.323555	-2.656123
5807.311946	0.988932	0.045180	0.989963	106.372701	8.750321	0.004297	88.466774	88.466774	88.466774	0.002653	28.769593	2.830000	0.914178	0.323417	-2.798195
5890.963548	0.989453	0.048811	0.990657	106.373224	8.745402	0.004235	88.388866	88.388866	88.388866	0.002455	28.760406	2.830000	0.914580	0.323599	-2.938212
5975.820111	0.991575	0.051890	0.992932	106.376365	8.732643	0.004172	88.321750	88.321750	88.321750	0.001885	28.742266	2.830000	0.915820	0.324071	-3.054053
6061.898993	0.994962	0.053834	0.996417	106.381607	8.714196	0.004108	88.275957	88.275957	88.275957	0.001037	28.718173	2.830000	0.917695	0.324757	-3.127359
6149.217802	0.999067	0.054226	1.000537	106.388077	8.693174	0.004044	88.258728	88.258728	88.258728	0.000052	28.692144	2.830000	0.919897	0.325543	-3.146866
6237.794396	1.003208	0.052897	1.004601	106.394689	8.673104	0.003982	88.272647	88.272647	88.272647	-0.000904	28.668518	2.830000	0.922058	0.326296	-3.110406
6327.646895	1.006679	0.049970	1.007919	106.400324	8.657324	0.003921	88.315006	88.315006	88.315006	-0.001669	28.651227	2.830000	0.923812	0.326891	-3.025289
6418.793677	1.008872	0.045852	1.009914	106.404018	8.648446	0.003863	88.378047	88.378047	88.378047	-0.002110	28.643139	2.830000	0.924859	0.327226	-2.907118
6511.253386	1.009393	0.041177	1.010233	106.405129	8.647941	0.003807	88.450104	88.450104	88.450104	-0.002150	28.645579	2.830000	0.925017	0.327246	-2.777371
6605.044933	1.008147	0.036702	1.008815	106.403462	8.655872	0.003755	88.517511	88.517511	88.517511	-0.001779	28.658061	2.830000	0.924259	0.326946	-2.660089
6700.187504	1.005375	0.033170	1.005922	106.399324	8.670803	0.003705	88.567028	88.567028	88.567028	-0.001066	28.678269	2.830000	0.922728	0.326383	-2.577956
6796.700558	1.001623	0.031157	1.002108	106.393503	8.689917	0.003657	88.588415	88.588415	88.588415	-0.000147	28.702321	2.830000	0.920720	0.325665	-2.548119
6894.603838	0.997652	0.030953	0.998132	106.387158	8.709402	0.003609	88.576687	88.576687	88.576687	0.000798	28.725362	2.830000	0.918639	0.324936	-2.578303
6993.917368	0.994286	0.032478	0.994817	106.381611	8.725131	0.003562	88.533523	88.533523	88.533523	0.001571	28.742479	2.830000	0.916920	0.324350	-2.664134
7094.661463	0.992245	0.035285	0.992872	106.378066	8.733579	0.003513	88.467371	88.467371	88.467371	0.002009	28.749808	2.830000	0.915938	0.324037	-2.788802
7196.856730	0.991976	0.038634	0.992728	106.377317	8.732754	0.003464	88.391997	88.391997	88.391997	0.002013	28.745573	2.830000	0.915915	0.324067	-2.925906
7300.524071	0.993535	0.041642	0.994407	106.379532	8.722837	0.003413	88.323601	88.323601	88.323601	0.001587	28.730699	2.830000	0.916856	0.324436	-3.045352
7405.684692	0.996558	0.043486	0.997506	106.384166	8.706249	0.003361	88.277076	88.277076	88.277076	0.000832	28.708719	2.830000	0.918538	0.325054	-3.120891
7512.360102	1.000319	0.043601	1.001268	106.390080	8.687071	0.003309	88.262289	88.262289	88.262289	-0.000065	28.684951	2.830000	0.920552	0.325771	-3.136976
7620.572122	1.003890	0.041834	1.004761	106.395802	8.670013	0.003259	88.281409	88.281409	88.281409	-0.000882	28.665169	2.830000	0.922402	0.326412	-3.092860
7730.342884	1.006368	0.038506	1.007105	106.399896	8.659241	0.003210	88.328024	88.328024	88.328024	-0.001414	28.654160	2.830000	0.923626	0.326818	-3.002884
7841.694843	1.007111	0.034354	1.007697	106.401319	8.657373	0.003164	88.388412	88.388412	88.388412	-0.001523	28.654540	2.830000	0.923917	0.326889	-2.893142
7954.650775	1.005923	0.030358	1.006381	106.399699	8.664814	0.003120	88.444792	88.444792	88.444792	-0.001180	28.666041	2.830000	0.923202	0.326608	-2.795402
8069.233784	1.003135	0.027482	1.003512	106.395466	8.679542	0.003078	88.479902	88.479902	88.479902	-0.000478	28.685436	2.830000	0.921679	0.326054	-2.739374
8185.467307	0.999540	0.026402	0.999888	106.389791	8.697437	0.003038	88.481849	88.481849	88.481849	0.000390	28.707170	2.830000	0.919778	0.325383	-2.744645
8303.375120	0.996185	0.027289	0.996559	106.384311	8.713232	0.002998	88.447907	88.447907	88.447907	0.001172	28.724725	2.830000	0.918057	0.324793	-2.814097
8422.981339	0.994075	0.029731	0.994519	106.380671	8.722012	0.002958	88.385963	88.385963	88.385963	0.001635	28.732530	2.830000	0.917038	0.324466	-2.931306
8544.310429	0.993856	0.032832	0.994398	106.379999	8.720891	0.002916	88.312743	88.312743	88.312743	0.001636	28.727879	2.830000	0.917045	0.324508	-3.064076
8667.387209	0.995593	0.035463	0.996224	106.382494	8.710178	0.002873	88.248933	88.248933	88.248933	0.001177	28.712085	2.830000	0.918077	0.324907	-3.174264
8792.236851	0.998716	0.036624	0.999387	106.387304	8.693435	0.002829	88.212520	88.212520	88.212520	0.000413	28.690239	2.830000	0.919794	0.325533	-3.230811
8918.884894	1.002176	0.035779	1.002815	106.392784	8.676290	0.002786	88.212547	88.212547	88.212547	-0.000396	28.669528	2.830000	0.921621	0.326176	-3.220840
9047.357242	1.004783	0.033076	1.005327	106.397039	8.664497	0.002744	88.245598	88.245598	88.245598	-0.000972	28.656774	2.830000	0.922935	0.326620	-3.154387
9177.680175	1.005615	0.029322	1.006043	106.398577	8.661983	0.002704	88.296454	88.296454	88.296454	-0.001113	28.656076	2.830000	0.923284	0.326715	-3.061270
9309.880348	1.004377	0.025731	1.004706	106.396842	8.669487	0.002667	88.343006	88.343006	88.343006	-0.000768	28.667335	2.830000	0.922553	0.326432	-2.981388
9443.984802	1.001535	0.023488	1.001811	106.392459	8.684153	0.002632	88.364037	88.364037	88.364037	-0.000064	28.686078	2.830000	0.921020	0.325881	-2.951201
9580.020968	0.998188	0.023293	0.998460	106.387079	8.700284	0.002597	88.347356	88.347356	88.347356	0.000732	28.704795	2.830000	0.919280	0.325277	-2.990009
9718.016671	0.995659	0.025055	0.995975	106.382812	8.711308	0.002562	88.295189	88.295189	88.295189	0.001306	28.715624	2.830000	0.918031	0.324865	-3.090767
9858.000137	0.994974	0.027891	0.995365	106.381387	8.712475	0.002526	88.224192	88.224192	88.224192	0.001425	28.713638	2.830000	0.917793	0.324822	-3.220589
10000.000000	0.996412	0.030446	0.996877	106.383377	8.703144	0.002489	88.159252	88.159252	88.159252	0.001041	28.699264	2.830000	0.918674	0.325170	-3.333230
10144.045304	0.999349	0.031457	0.999844	106.387877	8.687313	0.002451	88.123073	88.123073	88.123073	0.000325	28.678405	2.830000	0.920295	0.325762	-3.389367
10290.165513	1.002485	0.030315	1.002943	106.392852	8.671904	0.002414	88.125936	88.125936	88.125936	-0.000404	28.659916	2.830000	0.921944	0.326341	-3.374825
10438.390514	1.004396	0.027371	1.004769	106.396028	8.663648	0.002378	88.160472	88.160472	88.160472	-0.000814	28.651612	2.830000	0.922886	0.326652	-3.307484
10588.750628	1.004196	0.023832	1.004479	106.395925	8.666065	0.002345	88.204309	88.204309	88.204309	-0.000717	28.656706	2.830000	0.922700	0.326561	-3.229792
10741.276608	1.001989	0.021217	1.002213	106.392570	8.677777	0.002313	88.229955	88.229955	88.229955	-0.000159	28.672168	2.830000	0.921490	0.326120	-3.190217
10895.999653	0.998868	0.020633	0.999081	106.387572	8.692854	0.002283	88.217938	88.217938	88.217938	0.000589	28.689802	2.830000	0.919865	0.325555	-3.220650
11052.951411	0.996417	0.022186	0.996664	106.383424	8.703381	0.002252	88.167112	88.167112	88.167112	0.001148	28.699941	2.830000	0.918662	0.325161	-3.319084
11212.163986	0.995908	0.024876	0.996219	106.382261	8.703509	0.002220	88.096387	88.096387	88.096387	0.001228	28.696483	2.830000	0.918527	0.325156	-3.447734
11373.669943	0.997605	0.027075	0.997972	106.384658	8.692924	0.002187	88.035655	88.035655	88.035655	0.000789	28.680585	2.830000	0.919543	0.325552	-3.551448
11537.502317	1.000566	0.027389	1.000940	106.389225	8.677325	0.002154	88.009741	88.009741	88.009741	0.000078	28.660395	2.830000	0.921159	0.326137	-3.588438
11703.694619	1.003115	0.025459	1.003438	106.393325	8.665268	0.002122	88.024053	88.024053	88.024053	-0.000500	28.646554	2.830000	0.922475	0.326591	-3.554805
11872.280844	1.003776	0.022220	1.004022	106.394555	8.663302	0.002091	88.060608	88.060608	88.060608	-0.000611	28.646098	2.830000	0.922751	0.326665	-3.487535
12043.295474	1.002165	0.019413	1.002353	106.392154	8.672176	0.002063	88.087635	88.087635	88.087635	-0.000192	28.658283	2.830000	0.921849	0.326331	-3.444237
12216.773490	0.999277	0.018554	0.999449	106.387536	8.686125	0.002035	88.078179	88.078179	88.078179	0.000504	28.674654	2.830000	0.920343	0.325807	-3.470021
12392.750375	0.996935	0.019975	0.997136	106.383547	8.695950	0.002008	88.027272	88.027272	88.027272	0.001039	28.683767	2.830000	0.919206	0.325439	-3.568602
12571.262124	0.996650	0.022541	0.996905	106.382714	8.694783	0.001980	87.956434	87.956434	87.956434	0.001068	28.678482	2.830000	0.919199	0.325483	-3.696547
12752.345251	0.998599	0.024340	0.998895	106.385514	8.683019	0.001950	87.900721	87.900721	87.900721	0.000575	28.661203	2.830000	0.920347	0.325923	-3.789795
12936.036796	1.001442	0.023940	1.001728	106.389934	8.668393	0.001921	87.885272	87.885272	87.885272	-0.000096	28.642660	2.830000	0.921880	0.326473	-3.807792
13122.374331	1.003184	0.021422	1.003412	106.392804	8.660655	0.001892	87.907186	87.907186	87.907186	-0.000474	28.634521	2.830000	0.922752	0.326765	-3.762894
13311.395971	1.002579	0.018397	1.002747	106.392011	8.664722	0.001866	87.936423	87.936423	87.936423	-0.000290	28.641103	2.830000	0.922371	0.326612	-3.712802
13503.140379	1.000087	0.016883	1.000229	106.388074	8.677012	0.001841	87.936623	87.936623	87.936623	0.000321	28.655993	2.830000	0.921057	0.326149	-3.720661
13697.646775	0.997609	0.017802	0.997768	106.383893	8.687597	0.001816	87.892256	87.892256	87.892256	0.000895	28.666222	2.830000	0.919842	0.325752	-3.808279
13894.954944	0.997076	0.020200	0.997280	106.382643	8.687506	0.001791	87.821879	87.821879	87.821879	0.000985	28.661998	2.830000	0.919713	0.325755	-3.936020
14095.105244	0.998900	0.021927	0.999141	106.385215	8.676208	0.001764	87.765005	87.765005	87.765005	0.000524	28.644992	2.830000	0.920804	0.326179	-4.031154
14298.138616	1.001569	0.021341	1.001796	106.389356	8.662474	0.001737	87.750415	87.750415	87.750415	-0.000103	28.627512	2.830000	0.922245	0.326697	-4.047590
14504.096588	1.002826	0.018723	1.003001	106.391464	8.657141	0.001712	87.771340	87.771340	87.771340	-0.000366	28.622312	2.830000	0.922861	0.326898	-4.005881
14713.021288	1.001595	0.016120	1.001724	106.389630	8.663927	0.001689	87.789848	87.789848	87.789848	-0.000038	28.631656	2.830000	0.922170	0.326642	-3.977301
14924.955451	0.998986	0.015609	0.999108	106.385375	8.675946	0.001666	87.769009	87.769009	87.769009	0.000586	28.644920	2.830000	0.920840	0.326189	-4.023704
15139.942425	0.997389	0.017402	0.997541	106.382460	8.681282	0.001643	87.706574	87.706574	87.706574	0.000938	28.647489	2.830000	0.920140	0.325989	-4.140915
15358.026185	0.998291	0.019562	0.998483	106.383480	8.673976	0.001619	87.638877	87.638877	87.638877	0.000690	28.634411	2.830000	0.920776	0.326263	-4.258280
15579.251340	1.000806	0.019768	1.001001	106.387272	8.660261	0.001595	87.607548	87.607548	87.607548	0.000087	28.615839	2.830000	0.922179	0.326780	-4.304476
15803.663140	1.002441	0.017585	1.002595	106.389923	8.652717	0.001571	87.618511	87.618511	87.618511	-0.000270	28.607407	2.830000	0.923014	0.327065	-4.278797
16031.307485	1.001549	0.014993	1.001661	106.388617	8.657769	0.001550	87.634572	87.634572	87.634572	-0.000023	28.614566	2.830000	0.922505	0.326874	-4.253644
16262.230941	0.999079	0.014434	0.999183	106.384563	8.668949	0.001529	87.612118	87.612118	87.612118	0.000569	28.626626	2.830000	0.921256	0.326452	-4.302939
16496.480741	0.997675	0.016229	0.997807	106.381914	8.673035	0.001508	87.547218	87.547218	87.547218	0.000874	28.627264	2.830000	0.920674	0.326299	-4.423898
16734.104799	0.998861	0.018138	0.999026	106.383371	8.664266	0.001486	87.481835	87.481835	87.481835	0.000562	28.612283	2.830000	0.921465	0.326629	-4.535454
16975.151720	1.001284	0.017759	1.001441	106.387055	8.651332	0.001463	87.458593	87.458593	87.458593	-0.000010	28.595060	2.830000	0.922803	0.327117	-4.566925
17219.670809	1.002145	0.015286	1.002262	106.388503	8.647711	0.001442	87.471648	87.471648	87.471648	-0.000179	28.591569	2.830000	0.923223	0.327254	-4.540327
17467.712080	1.000446	0.013390	1.000536	106.385818	8.656030	0.001422	87.471734	87.471734	87.471734	0.000250	28.601649	2.830000	0.922327	0.326940	-4.547006
17719.326270	0.998267	0.014087	0.998367	106.382036	8.664529	0.001403	87.423860	87.423860	87.423860	0.000755	28.608576	2.830000	0.921301	0.326619	-4.640839
17974.564843	0.998315	0.016212	0.998447	106.381611	8.660888	0.001383	87.351354	87.351354	87.351354	0.000709	28.599031	2.830000	0.921519	0.326756	-4.769304
18233.480009	1.000504	0.016773	1.000645	106.384783	8.648122	0.001362	87.308620	87.308620	87.308620	0.000179	28.580525	2.830000	0.922789	0.327239	-4.835679
18496.124725	1.001957	0.014778	1.002066	106.387098	8.641155	0.001343	87.311192	87.311192	87.311192	-0.000138	28.572276	2.830000	0.923548	0.327502	-4.824930
18762.552716	1.000742	0.012641	1.000822	106.385194	8.647199	0.001324	87.313574	87.313574	87.313574	0.000181	28.579770	2.830000	0.922901	0.327274	-4.825902
19032.818477	0.998555	0.013005	0.998640	106.381407	8.655746	0.001306	87.269204	87.269204	87.269204	0.000693	28.586819	2.830000	0.921869	0.326950	-4.913843
19306.977289	0.998477	0.015041	0.998590	106.380745	8.652486	0.001287	87.195765	87.195765	87.195765	0.000678	28.577354	2.830000	0.922034	0.327074	-5.044130
19585.085230	1.000592	0.015509	1.000713	106.383776	8.639959	0.001268	87.152249	87.152249	87.152249	0.000166	28.558889	2.830000	0.923274	0.327548	-5.111475
19867.199185	1.001756	0.013449	1.001846	106.385623	8.634349	0.001250	87.153278	87.153278	87.153278	-0.000080	28.552174	2.830000	0.923884	0.327761	-5.104412
20000.000000	1.001315	0.012373	1.001392	106.384938	8.636570	0.001242	87.154792	87.154792	87.154792	0.000040	28.554983	2.830000	0.923648	0.327676	-5.103731
