Freq (hertz)	Ra (norm)	Xa (norm)	Za (norm)	SPL (dB)	Ze (ohms)	Xd (mm) 	WPhase (deg)	UPhase (deg)	CPhase (deg)	Delay (msec)	Efficiency (%)	Ein (volts)	Pin (watts)	Iin (amps)	ZePhase (deg)

10.000000	0.000277	0.019982	0.019984	69.410870	7.521121	2.114809	134.699620	134.699620	134.699620	8.629207	0.006737	2.830000	0.785803	0.376274	42.443455
10.144045	0.000285	0.020270	0.020272	69.601373	7.580379	2.100751	134.254872	134.254872	134.254872	8.524325	0.007140	2.830000	0.774665	0.373332	42.843344
10.290166	0.000293	0.020562	0.020564	69.790986	7.641157	2.086572	133.809239	133.809239	133.809239	8.419254	0.007568	2.830000	0.763509	0.370363	43.243300
10.438391	0.000302	0.020858	0.020860	69.979709	7.703495	2.072277	133.362798	133.362798	133.362798	8.314038	0.008021	2.830000	0.752341	0.367366	43.643226
10.588751	0.000311	0.021158	0.021160	70.167539	7.767433	2.057868	132.915625	132.915625	132.915625	8.208718	0.008502	2.830000	0.741164	0.364342	44.043026
10.741277	0.000320	0.021463	0.021465	70.354476	7.833011	2.043350	132.467795	132.467795	132.467795	8.103339	0.009012	2.830000	0.729984	0.361291	44.442602
10.896000	0.000329	0.021772	0.021774	70.540520	7.900273	2.028725	132.019385	132.019385	132.019385	7.997942	0.009553	2.830000	0.718805	0.358215	44.841857
11.052951	0.000339	0.022085	0.022088	70.725670	7.969263	2.013998	131.570470	131.570470	131.570470	7.892571	0.010126	2.830000	0.707632	0.355114	45.240691
11.212164	0.000348	0.022403	0.022406	70.909927	8.040026	1.999172	131.121127	131.121127	131.121127	7.787269	0.010735	2.830000	0.696470	0.351989	45.639004
11.373670	0.000358	0.022726	0.022729	71.093291	8.112608	1.984252	130.671430	130.671430	130.671430	7.682080	0.011380	2.830000	0.685323	0.348840	46.036696
11.537502	0.000369	0.023053	0.023056	71.275763	8.187059	1.969241	130.221456	130.221456	130.221456	7.577045	0.012064	2.830000	0.674196	0.345667	46.433667
11.703695	0.000380	0.023385	0.023388	71.457345	8.263428	1.954143	129.771278	129.771278	129.771278	7.472207	0.012790	2.830000	0.663094	0.342473	46.829815
11.872281	0.000391	0.023722	0.023725	71.638038	8.341768	1.938963	129.320971	129.320971	129.320971	7.367609	0.013559	2.830000	0.652021	0.339257	47.225037
12.043295	0.000402	0.024063	0.024067	71.817845	8.422131	1.923704	128.870609	128.870609	128.870609	7.263291	0.014376	2.830000	0.640982	0.336019	47.619232
12.216773	0.000414	0.024410	0.024413	71.996766	8.504573	1.908371	128.420265	128.420265	128.420265	7.159297	0.015242	2.830000	0.629981	0.332762	48.012297
12.392750	0.000426	0.024761	0.024765	72.174807	8.589152	1.892968	127.970010	127.970010	127.970010	7.055665	0.016161	2.830000	0.619024	0.329485	48.404127
12.571262	0.000438	0.025118	0.025121	72.351968	8.675927	1.877500	127.519917	127.519917	127.519917	6.952437	0.017136	2.830000	0.608113	0.326190	48.794620
12.752345	0.000451	0.025479	0.025483	72.528255	8.764960	1.861971	127.070055	127.070055	127.070055	6.849653	0.018170	2.830000	0.597254	0.322877	49.183670
12.936037	0.000464	0.025846	0.025850	72.703669	8.856315	1.846384	126.620494	126.620494	126.620494	6.747350	0.019268	2.830000	0.586451	0.319546	49.571174
13.122374	0.000477	0.026218	0.026223	72.878216	8.950058	1.830746	126.171303	126.171303	126.171303	6.645567	0.020432	2.830000	0.575708	0.316199	49.957027
13.311396	0.000491	0.026596	0.026600	73.051900	9.046259	1.815060	125.722549	125.722549	125.722549	6.544342	0.021668	2.830000	0.565030	0.312837	50.341123
13.503140	0.000505	0.026979	0.026983	73.224726	9.144988	1.799330	125.274298	125.274298	125.274298	6.443710	0.022979	2.830000	0.554419	0.309459	50.723355
13.697647	0.000520	0.027367	0.027372	73.396698	9.246321	1.783562	124.826614	124.826614	124.826614	6.343708	0.024370	2.830000	0.543881	0.306068	51.103619
13.894955	0.000535	0.027761	0.027766	73.567821	9.350336	1.767759	124.379561	124.379561	124.379561	6.244370	0.025847	2.830000	0.533419	0.302663	51.481807
14.095105	0.000551	0.028161	0.028166	73.738101	9.457112	1.751926	123.933202	123.933202	123.933202	6.145730	0.027414	2.830000	0.523037	0.299246	51.857812
14.298139	0.000567	0.028566	0.028572	73.907544	9.566735	1.736068	123.487596	123.487596	123.487596	6.047819	0.029077	2.830000	0.512738	0.295817	52.231526
14.504097	0.000583	0.028977	0.028983	74.076156	9.679291	1.720189	123.042802	123.042802	123.042802	5.950670	0.030843	2.830000	0.502526	0.292377	52.602841
14.713021	0.000600	0.029394	0.029400	74.243944	9.794873	1.704294	122.598879	122.598879	122.598879	5.854313	0.032716	2.830000	0.492405	0.288927	52.971647
14.924955	0.000617	0.029817	0.029824	74.410912	9.913576	1.688386	122.155881	122.155881	122.155881	5.758777	0.034706	2.830000	0.482377	0.285467	53.337834
15.139942	0.000635	0.030247	0.030253	74.577070	10.035500	1.672471	121.713863	121.713863	121.713863	5.664091	0.036817	2.830000	0.472446	0.281999	53.701292
15.358026	0.000654	0.030682	0.030689	74.742423	10.160748	1.656553	121.272878	121.272878	121.272878	5.570280	0.039059	2.830000	0.462615	0.278523	54.061909
15.579251	0.000673	0.031124	0.031131	74.906978	10.289430	1.640635	120.832976	120.832976	120.832976	5.477371	0.041438	2.830000	0.452886	0.275040	54.419572
15.803663	0.000692	0.031572	0.031579	75.070744	10.421660	1.624723	120.394205	120.394205	120.394205	5.385388	0.043965	2.830000	0.443263	0.271550	54.774167
16.031307	0.000712	0.032026	0.032034	75.233727	10.557558	1.608820	119.956614	119.956614	119.956614	5.294354	0.046648	2.830000	0.433749	0.268054	55.125577
16.262231	0.000733	0.032487	0.032495	75.395935	10.697248	1.592932	119.520246	119.520246	119.520246	5.204292	0.049496	2.830000	0.424345	0.264554	55.473687
16.496481	0.000754	0.032955	0.032963	75.557377	10.840862	1.577061	119.085146	119.085146	119.085146	5.115221	0.052520	2.830000	0.415054	0.261049	55.818377
16.734105	0.000776	0.033429	0.033438	75.718061	10.988538	1.561212	118.651355	118.651355	118.651355	5.027162	0.055732	2.830000	0.405879	0.257541	56.159525
16.975152	0.000798	0.033910	0.033920	75.877994	11.140420	1.545389	118.218912	118.218912	118.218912	4.940133	0.059142	2.830000	0.396821	0.254030	56.497010
17.219671	0.000822	0.034398	0.034408	76.037185	11.296660	1.529596	117.787854	117.787854	117.787854	4.854150	0.062764	2.830000	0.387883	0.250517	56.830705
17.467712	0.000845	0.034893	0.034903	76.195643	11.457417	1.513836	117.358217	117.358217	117.358217	4.769229	0.066611	2.830000	0.379067	0.247002	57.160482
17.719326	0.000870	0.035395	0.035406	76.353377	11.622861	1.498114	116.930035	116.930035	116.930035	4.685384	0.070695	2.830000	0.370374	0.243486	57.486209
17.974565	0.000895	0.035905	0.035916	76.510394	11.793169	1.482434	116.503339	116.503339	116.503339	4.602630	0.075034	2.830000	0.361806	0.239969	57.807751
18.233480	0.000921	0.036421	0.036433	76.666704	11.968526	1.466798	116.078159	116.078159	116.078159	4.520977	0.079642	2.830000	0.353364	0.236454	58.124971
18.496125	0.000948	0.036946	0.036958	76.822316	12.149130	1.451211	115.654522	115.654522	115.654522	4.440436	0.084536	2.830000	0.345050	0.232938	58.437725
18.762553	0.000975	0.037477	0.037490	76.977239	12.335189	1.435676	115.232454	115.232454	115.232454	4.361017	0.089735	2.830000	0.336865	0.229425	58.745865
19.032818	0.001004	0.038016	0.038030	77.131482	12.526922	1.420196	114.811977	114.811977	114.811977	4.282729	0.095257	2.830000	0.328811	0.225913	59.049239
19.306977	0.001033	0.038563	0.038577	77.285054	12.724561	1.404774	114.393115	114.393115	114.393115	4.205578	0.101122	2.830000	0.320888	0.222405	59.347690
19.585085	0.001063	0.039118	0.039133	77.437964	12.928353	1.389414	113.975885	113.975885	113.975885	4.129571	0.107353	2.830000	0.313097	0.218899	59.641052
19.867199	0.001094	0.039681	0.039696	77.590221	13.138557	1.374120	113.560307	113.560307	113.560307	4.054713	0.113971	2.830000	0.305439	0.215397	59.929154
20.153377	0.001125	0.040252	0.040268	77.741835	13.355449	1.358893	113.146394	113.146394	113.146394	3.981007	0.121000	2.830000	0.297914	0.211899	60.211818
20.443677	0.001158	0.040831	0.040848	77.892814	13.579322	1.343737	112.734162	112.734162	112.734162	3.908457	0.128467	2.830000	0.290525	0.208405	60.488857
20.738158	0.001192	0.041419	0.041436	78.043169	13.810487	1.328654	112.323621	112.323621	112.323621	3.837063	0.136399	2.830000	0.283270	0.204917	60.760075
21.036882	0.001226	0.042014	0.042032	78.192908	14.049273	1.313648	111.914782	111.914782	111.914782	3.766828	0.144824	2.830000	0.276150	0.201434	61.025266
21.339908	0.001262	0.042619	0.042637	78.342040	14.296032	1.298721	111.507652	111.507652	111.507652	3.697751	0.153773	2.830000	0.269165	0.197957	61.284212
21.647300	0.001298	0.043232	0.043251	78.490575	14.551138	1.283875	111.102238	111.102238	111.102238	3.629831	0.163277	2.830000	0.262317	0.194487	61.536685
21.959119	0.001336	0.043854	0.043874	78.638521	14.814989	1.269114	110.698543	110.698543	110.698543	3.563066	0.173372	2.830000	0.255604	0.191023	61.782442
22.275430	0.001375	0.044484	0.044506	78.785889	15.088011	1.254439	110.296569	110.296569	110.296569	3.497453	0.184092	2.830000	0.249028	0.187566	62.021227
22.596297	0.001415	0.045124	0.045146	78.932687	15.370658	1.239852	109.896318	109.896318	109.896318	3.432988	0.195477	2.830000	0.242587	0.184117	62.252767
22.921786	0.001456	0.045773	0.045796	79.078924	15.663416	1.225356	109.497787	109.497787	109.497787	3.369667	0.207566	2.830000	0.236282	0.180676	62.476771
23.251963	0.001498	0.046432	0.046456	79.224609	15.966804	1.210953	109.100975	109.100975	109.100975	3.307485	0.220402	2.830000	0.230112	0.177243	62.692930
23.586897	0.001541	0.047099	0.047124	79.369751	16.281378	1.196644	108.705875	108.705875	108.705875	3.246436	0.234029	2.830000	0.224078	0.173818	62.900913
23.926655	0.001586	0.047777	0.047803	79.514359	16.607737	1.182433	108.312483	108.312483	108.312483	3.186513	0.248495	2.830000	0.218179	0.170403	63.100366
24.271307	0.001632	0.048464	0.048491	79.658441	16.946521	1.168319	107.920788	107.920788	107.920788	3.127709	0.263848	2.830000	0.212414	0.166996	63.290908
24.620924	0.001679	0.049160	0.049189	79.802007	17.298420	1.154306	107.530783	107.530783	107.530783	3.070016	0.280142	2.830000	0.206784	0.163599	63.472130
24.975577	0.001728	0.049867	0.049897	79.945064	17.664175	1.140394	107.142454	107.142454	107.142454	3.013425	0.297429	2.830000	0.201288	0.160211	63.643593
25.335338	0.001778	0.050584	0.050615	80.087622	18.044587	1.126585	106.755791	106.755791	106.755791	2.957927	0.315768	2.830000	0.195924	0.156834	63.804821
25.700282	0.001830	0.051311	0.051344	80.229689	18.440517	1.112881	106.370777	106.370777	106.370777	2.903513	0.335218	2.830000	0.190693	0.153466	63.955302
26.070482	0.001883	0.052049	0.052083	80.371272	18.852899	1.099283	105.987397	105.987397	105.987397	2.850172	0.355841	2.830000	0.185595	0.150110	64.094480
26.446016	0.001937	0.052797	0.052833	80.512381	19.282741	1.085792	105.605634	105.605634	105.605634	2.797894	0.377702	2.830000	0.180627	0.146763	64.221751
26.826958	0.001993	0.053556	0.053593	80.653023	19.731136	1.072409	105.225469	105.225469	105.225469	2.746667	0.400869	2.830000	0.175790	0.143428	64.336460
27.213388	0.002051	0.054326	0.054365	80.793207	20.199269	1.059135	104.846881	104.846881	104.846881	2.696481	0.425410	2.830000	0.171083	0.140104	64.437893
27.605384	0.002111	0.055107	0.055147	80.932939	20.688428	1.045971	104.469849	104.469849	104.469849	2.647323	0.451399	2.830000	0.166505	0.136791	64.525272
28.003026	0.002172	0.055899	0.055941	81.072228	21.200015	1.032919	104.094349	104.094349	104.094349	2.599181	0.478909	2.830000	0.162056	0.133490	64.597745
28.406397	0.002235	0.056702	0.056746	81.211082	21.735558	1.019979	103.720359	103.720359	103.720359	2.552042	0.508017	2.830000	0.157734	0.130201	64.654379
28.815578	0.002300	0.057517	0.057563	81.349507	22.296722	1.007152	103.347852	103.347852	103.347852	2.505894	0.538800	2.830000	0.153539	0.126924	64.694151
29.230652	0.002366	0.058343	0.058391	81.487511	22.885331	0.994438	102.976801	102.976801	102.976801	2.460724	0.571339	2.830000	0.149469	0.123660	64.715936
29.651706	0.002435	0.059181	0.059232	81.625102	23.503380	0.981838	102.607179	102.607179	102.607179	2.416518	0.605713	2.830000	0.145525	0.120408	64.718494
30.078825	0.002505	0.060032	0.060084	81.762285	24.153056	0.969352	102.238956	102.238956	102.238956	2.373264	0.642004	2.830000	0.141705	0.117169	64.700455
30.512097	0.002578	0.060894	0.060949	81.899069	24.836763	0.956982	101.872102	101.872102	101.872102	2.330946	0.680293	2.830000	0.138008	0.113944	64.660303
30.951609	0.002653	0.061769	0.061826	82.035459	25.557146	0.944727	101.506586	101.506586	101.506586	2.289551	0.720659	2.830000	0.134434	0.110732	64.596358
31.397452	0.002730	0.062656	0.062715	82.171463	26.317121	0.932588	101.142376	101.142376	101.142376	2.249065	0.763184	2.830000	0.130982	0.107535	64.506751
31.849718	0.002809	0.063556	0.063618	82.307086	27.119904	0.920564	100.779437	100.779437	100.779437	2.209474	0.807943	2.830000	0.127650	0.104351	64.389399
32.308498	0.002890	0.064468	0.064533	82.442336	27.969055	0.908658	100.417737	100.417737	100.417737	2.170764	0.855011	2.830000	0.124439	0.101183	64.241977
32.773887	0.002974	0.065394	0.065462	82.577217	28.868516	0.896867	100.057239	100.057239	100.057239	2.132921	0.904459	2.830000	0.121347	0.098031	64.061877
33.245979	0.003060	0.066333	0.066404	82.711737	29.822659	0.885193	99.697906	99.697906	99.697906	2.095929	0.956351	2.830000	0.118373	0.094894	63.846177
33.724872	0.003149	0.067285	0.067359	82.845900	30.836343	0.873635	99.339703	99.339703	99.339703	2.059774	1.010746	2.830000	0.115516	0.091775	63.591581
34.210663	0.003240	0.068251	0.068328	82.979713	31.914970	0.862194	98.982590	98.982590	98.982590	2.024443	1.067696	2.830000	0.112776	0.088673	63.294374
34.703452	0.003334	0.069231	0.069311	83.113181	33.064558	0.850869	98.626529	98.626529	98.626529	1.989919	1.127243	2.830000	0.110153	0.085590	62.950348
35.203338	0.003431	0.070225	0.070308	83.246309	34.291816	0.839661	98.271480	98.271480	98.271480	1.956190	1.189420	2.830000	0.107644	0.082527	62.554725
35.710426	0.003530	0.071232	0.071320	83.379103	35.604221	0.828569	97.917403	97.917403	97.917403	1.923240	1.254244	2.830000	0.105250	0.079485	62.102067
36.224818	0.003633	0.072254	0.072346	83.511567	37.010114	0.817592	97.564255	97.564255	97.564255	1.891055	1.321724	2.830000	0.102970	0.076466	61.586167
36.746619	0.003738	0.073291	0.073386	83.643706	38.518787	0.806731	97.211996	97.211996	97.211996	1.859621	1.391850	2.830000	0.100803	0.073471	60.999917
37.275937	0.003846	0.074342	0.074442	83.775526	40.140579	0.795986	96.860582	96.860582	96.860582	1.828923	1.464596	2.830000	0.098748	0.070502	60.335156
37.812880	0.003958	0.075409	0.075513	83.907029	41.886955	0.785356	96.509969	96.509969	96.509969	1.798946	1.539918	2.830000	0.096805	0.067563	59.582491
38.357556	0.004072	0.076490	0.076599	84.038222	43.770575	0.774840	96.160114	96.160114	96.160114	1.769678	1.617753	2.830000	0.094974	0.064655	58.731088
38.910079	0.004190	0.077587	0.077700	84.169107	45.805309	0.764438	95.810972	95.810972	95.810972	1.741103	1.698016	2.830000	0.093253	0.061783	57.768421
39.470560	0.004312	0.078700	0.078818	84.299689	48.006192	0.754150	95.462497	95.462497	95.462497	1.713208	1.780600	2.830000	0.091642	0.058951	56.679990
40.039115	0.004437	0.079828	0.079951	84.429972	50.389244	0.743976	95.114644	95.114644	95.114644	1.685978	1.865377	2.830000	0.090142	0.056163	55.449003
40.615860	0.004565	0.080972	0.081101	84.559960	52.971095	0.733914	94.767366	94.767366	94.767366	1.659400	1.952193	2.830000	0.088750	0.053425	54.056022
41.200912	0.004697	0.082133	0.082267	84.689655	55.768293	0.723964	94.420615	94.420615	94.420615	1.633461	2.040872	2.830000	0.087467	0.050746	52.478595
41.794392	0.004834	0.083310	0.083450	84.819061	58.796127	0.714126	94.074344	94.074344	94.074344	1.608146	2.131215	2.830000	0.086293	0.048132	50.690914
42.396421	0.004974	0.084504	0.084650	84.948182	62.066736	0.704399	93.728506	93.728506	93.728506	1.583443	2.222999	2.830000	0.085226	0.045596	48.663550
43.007121	0.005118	0.085714	0.085867	85.077020	65.586167	0.694783	93.383050	93.383050	93.383050	1.559338	2.315981	2.830000	0.084268	0.043149	46.363384
43.626619	0.005266	0.086942	0.087101	85.205579	69.350028	0.685276	93.037929	93.037929	93.037929	1.535817	2.409896	2.830000	0.083417	0.040807	43.753917
44.255040	0.005418	0.088187	0.088354	85.333860	73.337311	0.675878	92.693092	92.693092	92.693092	1.512869	2.504464	2.830000	0.082673	0.038589	40.796239
44.892513	0.005575	0.089450	0.089624	85.461867	77.502194	0.666588	92.348490	92.348490	92.348490	1.490480	2.599387	2.830000	0.082037	0.036515	37.451043
45.539168	0.005737	0.090731	0.090912	85.589601	81.764135	0.657406	92.004072	92.004072	92.004072	1.468638	2.694356	2.830000	0.081508	0.034612	33.682190
46.195138	0.005903	0.092029	0.092219	85.717065	85.997764	0.648330	91.659787	91.659787	91.659787	1.447330	2.789053	2.830000	0.081086	0.032908	29.462285
46.860558	0.006074	0.093346	0.093544	85.844261	90.025999	0.639361	91.315584	91.315584	91.315584	1.426545	2.883153	2.830000	0.080770	0.031435	24.780450
47.535562	0.006250	0.094682	0.094888	85.971190	93.622108	0.630497	90.971412	90.971412	90.971412	1.406269	2.976331	2.830000	0.080562	0.030228	19.651671
48.220290	0.006431	0.096037	0.096252	86.097855	96.527498	0.621738	90.627218	90.627218	90.627218	1.386491	3.068264	2.830000	0.080461	0.029318	14.125754
48.914880	0.006617	0.097410	0.097635	86.224256	98.489020	0.613082	90.282951	90.282951	90.282951	1.367199	3.158635	2.830000	0.080468	0.028734	8.292414
49.619476	0.006808	0.098803	0.099038	86.350395	99.310743	0.604529	89.938558	89.938558	89.938558	1.348381	3.247138	2.830000	0.080581	0.028496	2.278551
50.334221	0.007006	0.100216	0.100461	86.476274	98.903404	0.596078	89.593985	89.593985	89.593985	1.330028	3.333482	2.830000	0.080802	0.028614	-3.764378
51.059262	0.007208	0.101649	0.101904	86.601892	97.309531	0.587728	89.249181	89.249181	89.249181	1.312126	3.417393	2.830000	0.081131	0.029082	-9.680727
51.794747	0.007417	0.103101	0.103368	86.727252	94.691390	0.579478	88.904091	88.904091	88.904091	1.294665	3.498617	2.830000	0.081569	0.029887	-15.332421
52.540826	0.007632	0.104574	0.104852	86.852353	91.288038	0.571328	88.558661	88.558661	88.558661	1.277634	3.576926	2.830000	0.082114	0.031001	-20.614997
53.297652	0.007853	0.106068	0.106358	86.977196	87.361861	0.563276	88.212839	88.212839	88.212839	1.261022	3.652116	2.830000	0.082769	0.032394	-25.463982
54.065379	0.008080	0.107583	0.107886	87.101781	83.154676	0.555322	87.866569	87.866569	87.866569	1.244820	3.724013	2.830000	0.083534	0.034033	-29.852296
54.844166	0.008314	0.109119	0.109435	87.226108	78.862862	0.547464	87.519798	87.519798	87.519798	1.229016	3.792469	2.830000	0.084408	0.035885	-33.782277
55.634170	0.008554	0.110676	0.111006	87.350178	74.630288	0.539702	87.172471	87.172471	87.172471	1.213601	3.857368	2.830000	0.085393	0.037920	-37.276158
56.435554	0.008802	0.112256	0.112600	87.473989	70.552720	0.532035	86.824532	86.824532	86.824532	1.198564	3.918622	2.830000	0.086489	0.040112	-40.367576
57.248482	0.009056	0.113857	0.114217	87.597543	66.687314	0.524462	86.475928	86.475928	86.475928	1.183897	3.976173	2.830000	0.087697	0.042437	-43.095165
58.073119	0.009318	0.115481	0.115856	87.720837	63.062892	0.516982	86.126604	86.126604	86.126604	1.169588	4.029991	2.830000	0.089017	0.044876	-45.498284
58.909635	0.009588	0.117127	0.117519	87.843872	59.688882	0.509594	85.776503	85.776503	85.776503	1.155630	4.080071	2.830000	0.090451	0.047413	-47.614487
59.758201	0.009865	0.118797	0.119206	87.966645	56.562243	0.502298	85.425571	85.425571	85.425571	1.142011	4.126435	2.830000	0.091999	0.050033	-49.478214
60.618990	0.010150	0.120490	0.120916	88.089157	53.672452	0.495091	85.073752	85.073752	85.073752	1.128725	4.169127	2.830000	0.093662	0.052727	-51.120272
61.492178	0.010444	0.122206	0.122651	88.211406	51.004925	0.487974	84.720991	84.720991	84.720991	1.115761	4.208212	2.830000	0.095442	0.055485	-52.567792
62.377944	0.010746	0.123946	0.124411	88.333391	48.543241	0.480945	84.367233	84.367233	84.367233	1.103111	4.243774	2.830000	0.097338	0.058299	-53.844434
63.276469	0.011056	0.125710	0.126196	88.455109	46.270560	0.474004	84.012420	84.012420	84.012420	1.090766	4.275914	2.830000	0.099352	0.061162	-54.970708
64.187937	0.011376	0.127499	0.128006	88.576559	44.170463	0.467149	83.656498	83.656498	83.656498	1.078719	4.304743	2.830000	0.101485	0.064070	-55.964345
65.112534	0.011705	0.129313	0.129842	88.697739	42.227421	0.460379	83.299411	83.299411	83.299411	1.066960	4.330389	2.830000	0.103739	0.067018	-56.840649
66.050449	0.012043	0.131152	0.131704	88.818647	40.427042	0.453695	82.941103	82.941103	82.941103	1.055481	4.352984	2.830000	0.106114	0.070003	-57.612838
67.001875	0.012391	0.133016	0.133592	88.939280	38.756148	0.447093	82.581519	82.581519	82.581519	1.044276	4.372670	2.830000	0.108611	0.073021	-58.292333
67.967006	0.012749	0.134906	0.135507	89.059636	37.202780	0.440575	82.220601	82.220601	82.220601	1.033335	4.389593	2.830000	0.111233	0.076070	-58.889029
68.946038	0.013117	0.136822	0.137450	89.179712	35.756143	0.434138	81.858295	81.858295	81.858295	1.022652	4.403903	2.830000	0.113980	0.079147	-59.411508
69.939174	0.013496	0.138765	0.139420	89.299505	34.406528	0.427783	81.494545	81.494545	81.494545	1.012219	4.415750	2.830000	0.116853	0.082252	-59.867237
70.946615	0.013886	0.140734	0.141417	89.419012	33.145219	0.421507	81.129294	81.129294	81.129294	1.002029	4.425285	2.830000	0.119854	0.085382	-60.262729
71.968567	0.014287	0.142730	0.143444	89.538231	31.964399	0.415310	80.762488	80.762488	80.762488	0.992074	4.432658	2.830000	0.122985	0.088536	-60.603679
73.005241	0.014700	0.144754	0.145499	89.657156	30.857062	0.409191	80.394070	80.394070	80.394070	0.982348	4.438016	2.830000	0.126247	0.091713	-60.895083
74.056847	0.015124	0.146806	0.147583	89.775785	29.816923	0.403150	80.023985	80.023985	80.023985	0.972843	4.441502	2.830000	0.129641	0.094913	-61.141332
75.123601	0.015560	0.148885	0.149696	89.894114	28.838340	0.397185	79.652178	79.652178	79.652178	0.963553	4.443256	2.830000	0.133169	0.098133	-61.346300
76.205721	0.016010	0.150993	0.151840	90.012139	27.916247	0.391295	79.278592	79.278592	79.278592	0.954472	4.443414	2.830000	0.136833	0.101375	-61.513412
77.303429	0.016472	0.153130	0.154013	90.129855	27.046085	0.385480	78.903174	78.903174	78.903174	0.945593	4.442104	2.830000	0.140634	0.104636	-61.645703
78.416948	0.016947	0.155296	0.156218	90.247258	26.223746	0.379738	78.525868	78.525868	78.525868	0.936910	4.439450	2.830000	0.144574	0.107917	-61.745872
79.546508	0.017436	0.157491	0.158454	90.364343	25.445527	0.374069	78.146620	78.146620	78.146620	0.928416	4.435572	2.830000	0.148655	0.111218	-61.816323
80.692338	0.017938	0.159717	0.160721	90.481106	24.708079	0.368472	77.765374	77.765374	77.765374	0.920105	4.430580	2.830000	0.152878	0.114537	-61.859202
81.854673	0.018456	0.161972	0.163020	90.597542	24.008372	0.362946	77.382076	77.382076	77.382076	0.911972	4.424580	2.830000	0.157245	0.117876	-61.876430
83.033751	0.018988	0.164258	0.165352	90.713644	23.343659	0.357490	76.996673	76.996673	76.996673	0.904011	4.417673	2.830000	0.161758	0.121232	-61.869732
84.229813	0.019535	0.166574	0.167716	90.829409	22.711444	0.352103	76.609110	76.609110	76.609110	0.896216	4.409953	2.830000	0.166418	0.124607	-61.840656
85.443104	0.020098	0.168922	0.170114	90.944830	22.109458	0.346784	76.219333	76.219333	76.219333	0.888582	4.401505	2.830000	0.171229	0.128000	-61.790597
86.673872	0.020677	0.171302	0.172545	91.059901	21.535634	0.341534	75.827290	75.827290	75.827290	0.881102	4.392414	2.830000	0.176190	0.131410	-61.720815
87.922369	0.021273	0.173713	0.175011	91.174617	20.988083	0.336349	75.432928	75.432928	75.432928	0.873773	4.382755	2.830000	0.181305	0.134838	-61.632447
89.188849	0.021886	0.176157	0.177511	91.288971	20.465080	0.331231	75.036194	75.036194	75.036194	0.866588	4.372599	2.830000	0.186574	0.138284	-61.526525
90.473572	0.022516	0.178634	0.180047	91.402956	19.965046	0.326178	74.637035	74.637035	74.637035	0.859542	4.362011	2.830000	0.192001	0.141748	-61.403982
91.776802	0.023164	0.181143	0.182618	91.516567	19.486532	0.321188	74.235401	74.235401	74.235401	0.852631	4.351053	2.830000	0.197586	0.145229	-61.265669
93.098803	0.023831	0.183686	0.185225	91.629795	19.028208	0.316263	73.831239	73.831239	73.831239	0.845849	4.339779	2.830000	0.203332	0.148727	-61.112357
94.439848	0.024517	0.186262	0.187869	91.742635	18.588851	0.311400	73.424499	73.424499	73.424499	0.839192	4.328243	2.830000	0.209241	0.152242	-60.944751
95.800210	0.025222	0.188873	0.190550	91.855078	18.167332	0.306598	73.015130	73.015130	73.015130	0.832656	4.316490	2.830000	0.215314	0.155774	-60.763493
97.180167	0.025948	0.191518	0.193268	91.967117	17.762613	0.301858	72.603083	72.603083	72.603083	0.826235	4.304565	2.830000	0.221553	0.159323	-60.569170
98.580001	0.026694	0.194198	0.196024	92.078745	17.373734	0.297178	72.188309	72.188309	72.188309	0.819925	4.292507	2.830000	0.227960	0.162890	-60.362319
100.000000	0.027461	0.196913	0.198819	92.189954	16.999805	0.292558	71.770757	71.770757	71.770757	0.813721	4.280351	2.830000	0.234536	0.166472	-60.143430
101.440453	0.028251	0.199663	0.201652	92.300735	16.640006	0.287996	71.350382	71.350382	71.350382	0.807620	4.268131	2.830000	0.241285	0.170072	-59.912955
102.901655	0.029062	0.202450	0.204525	92.411080	16.293574	0.283492	70.927134	70.927134	70.927134	0.801618	4.255876	2.830000	0.248207	0.173688	-59.671307
104.383905	0.029897	0.205273	0.207438	92.520981	15.959800	0.279046	70.500967	70.500967	70.500967	0.795709	4.243613	2.830000	0.255303	0.177321	-59.418867
105.887506	0.030756	0.208132	0.210392	92.630428	15.638026	0.274656	70.071835	70.071835	70.071835	0.789890	4.231367	2.830000	0.262577	0.180969	-59.155982
107.412766	0.031639	0.211028	0.213387	92.739412	15.327640	0.270322	69.639693	69.639693	69.639693	0.784158	4.219158	2.830000	0.270029	0.184634	-58.882975
108.959997	0.032546	0.213962	0.216423	92.847926	15.028071	0.266043	69.204495	69.204495	69.204495	0.778508	4.207008	2.830000	0.277660	0.188314	-58.600143
110.529514	0.033480	0.216933	0.219502	92.955958	14.738788	0.261818	68.766199	68.766199	68.766199	0.772936	4.194932	2.830000	0.285473	0.192010	-58.307758
112.121640	0.034440	0.219942	0.222623	93.063499	14.459293	0.257647	68.324762	68.324762	68.324762	0.767440	4.182948	2.830000	0.293469	0.195722	-58.006074
113.736699	0.035428	0.222990	0.225787	93.170540	14.189122	0.253529	67.880140	67.880140	67.880140	0.762015	4.171067	2.830000	0.301648	0.199449	-57.695322
115.375023	0.036443	0.226076	0.228995	93.277070	13.927841	0.249464	67.432293	67.432293	67.432293	0.756657	4.159304	2.830000	0.310014	0.203190	-57.375720
117.036946	0.037487	0.229201	0.232247	93.383079	13.675043	0.245450	66.981182	66.981182	66.981182	0.751364	4.147667	2.830000	0.318565	0.206946	-57.047467
118.722808	0.038561	0.232366	0.235544	93.488556	13.430347	0.241488	66.526766	66.526766	66.526766	0.746132	4.136166	2.830000	0.327305	0.210717	-56.710747
120.432955	0.039665	0.235570	0.238886	93.593491	13.193393	0.237575	66.069007	66.069007	66.069007	0.740958	4.124809	2.830000	0.336232	0.214501	-56.365733
122.167735	0.040800	0.238814	0.242275	93.697872	12.963848	0.233713	65.607869	65.607869	65.607869	0.735838	4.113604	2.830000	0.345350	0.218299	-56.012584
123.927504	0.041967	0.242099	0.245709	93.801689	12.741394	0.229899	65.143315	65.143315	65.143315	0.730770	4.102555	2.830000	0.354657	0.222111	-55.651449
125.712621	0.043167	0.245424	0.249191	93.904930	12.525735	0.226134	64.675311	64.675311	64.675311	0.725750	4.091667	2.830000	0.364156	0.225935	-55.282465
127.523453	0.044401	0.248790	0.252721	94.007584	12.316590	0.222418	64.203822	64.203822	64.203822	0.720776	4.080944	2.830000	0.373845	0.229771	-54.905761
129.360368	0.045669	0.252197	0.256299	94.109638	12.113696	0.218748	63.728817	63.728817	63.728817	0.715845	4.070390	2.830000	0.383727	0.233620	-54.521457
131.223743	0.046973	0.255646	0.259925	94.211080	11.916805	0.215125	63.250265	63.250265	63.250265	0.710953	4.060006	2.830000	0.393800	0.237480	-54.129666
133.113960	0.048314	0.259136	0.263601	94.311899	11.725681	0.211549	62.768135	62.768135	62.768135	0.706098	4.049794	2.830000	0.404065	0.241351	-53.730493
135.031404	0.049692	0.262668	0.267327	94.412081	11.540103	0.208018	62.282399	62.282399	62.282399	0.701278	4.039755	2.830000	0.414522	0.245232	-53.324036
136.976468	0.051109	0.266243	0.271104	94.511615	11.359862	0.204532	61.793030	61.793030	61.793030	0.696490	4.029889	2.830000	0.425170	0.249123	-52.910389
138.949549	0.052566	0.269860	0.274932	94.610487	11.184758	0.201090	61.300002	61.300002	61.300002	0.691731	4.020197	2.830000	0.436009	0.253023	-52.489638
140.951052	0.054063	0.273519	0.278811	94.708684	11.014606	0.197693	60.803292	60.803292	60.803292	0.686999	4.010678	2.830000	0.447039	0.256932	-52.061867
142.981386	0.055602	0.277222	0.282743	94.806193	10.849226	0.194339	60.302877	60.302877	60.302877	0.682292	4.001331	2.830000	0.458257	0.260848	-51.627153
145.040966	0.057184	0.280968	0.286728	94.903001	10.688451	0.191028	59.798735	59.798735	59.798735	0.677607	3.992154	2.830000	0.469664	0.264772	-51.185570
147.130213	0.058810	0.284756	0.290766	94.999094	10.532120	0.187759	59.290847	59.290847	59.290847	0.672942	3.983147	2.830000	0.481257	0.268702	-50.737188
149.249555	0.060481	0.288589	0.294859	95.094457	10.380083	0.184533	58.779195	58.779195	58.779195	0.668295	3.974307	2.830000	0.493036	0.272638	-50.282076
151.399424	0.062199	0.292465	0.299006	95.189078	10.232194	0.181347	58.263764	58.263764	58.263764	0.663663	3.965632	2.830000	0.504998	0.276578	-49.820297
153.580262	0.063965	0.296385	0.303209	95.282942	10.088318	0.178203	57.744538	57.744538	57.744538	0.659046	3.957120	2.830000	0.517141	0.280522	-49.351914
155.792513	0.065779	0.300349	0.307467	95.376034	9.948324	0.175100	57.221506	57.221506	57.221506	0.654441	3.948768	2.830000	0.529464	0.284470	-48.876985
158.036631	0.067644	0.304356	0.311783	95.468341	9.812088	0.172036	56.694656	56.694656	56.694656	0.649845	3.940573	2.830000	0.541962	0.288420	-48.395569
160.313075	0.069560	0.308408	0.316155	95.559847	9.679493	0.169012	56.163980	56.163980	56.163980	0.645258	3.932532	2.830000	0.554634	0.292371	-47.907722
162.622309	0.071529	0.312504	0.320586	95.650537	9.550425	0.166027	55.629470	55.629470	55.629470	0.640678	3.924643	2.830000	0.567477	0.296322	-47.413497
164.964807	0.073552	0.316644	0.325074	95.740397	9.424779	0.163081	55.091121	55.091121	55.091121	0.636102	3.916901	2.830000	0.580486	0.300272	-46.912949
167.341048	0.075632	0.320828	0.329622	95.829412	9.302452	0.160174	54.548930	54.548930	54.548930	0.631530	3.909304	2.830000	0.593658	0.304221	-46.406130
169.751517	0.077768	0.325057	0.334230	95.917566	9.183347	0.157304	54.002896	54.002896	54.002896	0.626960	3.901847	2.830000	0.606989	0.308166	-45.893092
172.196708	0.079962	0.329329	0.338898	96.004844	9.067372	0.154472	53.453019	53.453019	53.453019	0.622390	3.894528	2.830000	0.620474	0.312108	-45.373885
174.677121	0.082217	0.333646	0.343626	96.091230	8.954436	0.151676	52.899303	52.899303	52.899303	0.617819	3.887344	2.830000	0.634110	0.316044	-44.848560
177.193263	0.084534	0.338006	0.348416	96.176710	8.844457	0.148918	52.341751	52.341751	52.341751	0.613246	3.880289	2.830000	0.647890	0.319974	-44.317168
179.745648	0.086913	0.342410	0.353269	96.261266	8.737352	0.146196	51.780372	51.780372	51.780372	0.608670	3.873360	2.830000	0.661810	0.323897	-43.779759
182.334800	0.089358	0.346858	0.358183	96.344884	8.633044	0.143510	51.215173	51.215173	51.215173	0.604089	3.866554	2.830000	0.675863	0.327810	-43.236383
184.961247	0.091869	0.351349	0.363162	96.427547	8.531459	0.140860	50.646167	50.646167	50.646167	0.599503	3.859867	2.830000	0.690044	0.331713	-42.687092
187.625527	0.094448	0.355884	0.368204	96.509239	8.432527	0.138245	50.073367	50.073367	50.073367	0.594910	3.853295	2.830000	0.704346	0.335605	-42.131936
190.328185	0.097097	0.360462	0.373310	96.589944	8.336179	0.135664	49.496788	49.496788	49.496788	0.590310	3.846833	2.830000	0.718763	0.339484	-41.570967
193.069773	0.099817	0.365082	0.378481	96.669647	8.242350	0.133119	48.916447	48.916447	48.916447	0.585702	3.840479	2.830000	0.733287	0.343349	-41.004237
195.850852	0.102611	0.369744	0.383718	96.748331	8.150979	0.130608	48.332366	48.332366	48.332366	0.581084	3.834227	2.830000	0.747910	0.347198	-40.431800
198.671992	0.105480	0.374448	0.389021	96.825979	8.062004	0.128130	47.744565	47.744565	47.744565	0.576457	3.828075	2.830000	0.762626	0.351029	-39.853707
201.533769	0.108426	0.379194	0.394391	96.902576	7.975370	0.125687	47.153070	47.153070	47.153070	0.571820	3.822017	2.830000	0.777426	0.354842	-39.270016
204.436768	0.111451	0.383981	0.399828	96.978104	7.891020	0.123276	46.557907	46.557907	46.557907	0.567171	3.816051	2.830000	0.792302	0.358636	-38.680780
207.381584	0.114556	0.388808	0.405333	97.052548	7.808903	0.120899	45.959104	45.959104	45.959104	0.562512	3.810172	2.830000	0.807244	0.362407	-38.086057
210.368818	0.117744	0.393675	0.410906	97.125891	7.728967	0.118554	45.356693	45.356693	45.356693	0.557840	3.804376	2.830000	0.822243	0.366155	-37.485905
213.399082	0.121017	0.398581	0.416548	97.198117	7.651164	0.116242	44.750708	44.750708	44.750708	0.553157	3.798660	2.830000	0.837290	0.369878	-36.880382
216.472995	0.124377	0.403526	0.422259	97.269210	7.575447	0.113962	44.141182	44.141182	44.141182	0.548461	3.793018	2.830000	0.852375	0.373575	-36.269550
219.591187	0.127825	0.408508	0.428040	97.339152	7.501771	0.111714	43.528155	43.528155	43.528155	0.543753	3.787447	2.830000	0.867487	0.377244	-35.653469
222.754295	0.131364	0.413527	0.433891	97.407928	7.430093	0.109498	42.911666	42.911666	42.911666	0.539033	3.781944	2.830000	0.882617	0.380883	-35.032204
225.962966	0.134996	0.418583	0.439813	97.475521	7.360372	0.107313	42.291757	42.291757	42.291757	0.534299	3.776504	2.830000	0.897752	0.384491	-34.405818
229.217857	0.138724	0.423673	0.445806	97.541915	7.292568	0.105159	41.668472	41.668472	41.668472	0.529553	3.771123	2.830000	0.912883	0.388066	-33.774377
232.519632	0.142548	0.428797	0.451871	97.607094	7.226642	0.103036	41.041858	41.041858	41.041858	0.524795	3.765797	2.830000	0.927998	0.391607	-33.137949
235.868968	0.146472	0.433955	0.458007	97.671041	7.162557	0.100944	40.411962	40.411962	40.411962	0.520024	3.760522	2.830000	0.943084	0.395110	-32.496604
239.266550	0.150497	0.439144	0.464216	97.733740	7.100278	0.098882	39.778836	39.778836	39.778836	0.515242	3.755294	2.830000	0.958130	0.398576	-31.850411
242.713072	0.154627	0.444363	0.470498	97.795176	7.039770	0.096850	39.142531	39.142531	39.142531	0.510447	3.750109	2.830000	0.973124	0.402002	-31.199443
246.209240	0.158862	0.449612	0.476853	97.855331	6.981001	0.094848	38.503103	38.503103	38.503103	0.505641	3.744963	2.830000	0.988052	0.405386	-30.543773
249.755769	0.163207	0.454889	0.483281	97.914190	6.923940	0.092875	37.860607	37.860607	37.860607	0.500824	3.739852	2.830000	1.002903	0.408727	-29.883477
253.353383	0.167662	0.460192	0.489782	97.971738	6.868554	0.090932	37.215103	37.215103	37.215103	0.495996	3.734772	2.830000	1.017663	0.412023	-29.218633
257.002820	0.172230	0.465519	0.496358	98.027958	6.814816	0.089018	36.566649	36.566649	36.566649	0.491158	3.729719	2.830000	1.032319	0.415272	-28.549317
260.704825	0.176914	0.470870	0.503008	98.082835	6.762696	0.087134	35.915309	35.915309	35.915309	0.486311	3.724688	2.830000	1.046858	0.418472	-27.875612
264.460155	0.181716	0.476241	0.509732	98.136353	6.712168	0.085278	35.261146	35.261146	35.261146	0.481455	3.719676	2.830000	1.061267	0.421622	-27.197597
268.269580	0.186639	0.481632	0.516530	98.188497	6.663205	0.083450	34.604225	34.604225	34.604225	0.476591	3.714679	2.830000	1.075531	0.424721	-26.515357
272.133877	0.191685	0.487041	0.523404	98.239252	6.615782	0.081651	33.944613	33.944613	33.944613	0.471719	3.709692	2.830000	1.089637	0.427765	-25.828977
276.053838	0.196855	0.492464	0.530352	98.288601	6.569875	0.079880	33.282379	33.282379	33.282379	0.466841	3.704710	2.830000	1.103571	0.430754	-25.138543
280.030263	0.202154	0.497901	0.537374	98.336531	6.525460	0.078137	32.617593	32.617593	32.617593	0.461958	3.699731	2.830000	1.117319	0.433686	-24.444142
284.063968	0.207583	0.503348	0.544472	98.383027	6.482515	0.076421	31.950326	31.950326	31.950326	0.457069	3.694750	2.830000	1.130868	0.436559	-23.745866
288.155776	0.213145	0.508803	0.551644	98.428073	6.441018	0.074733	31.280651	31.280651	31.280651	0.452177	3.689761	2.830000	1.144204	0.439372	-23.043803
292.306525	0.218842	0.514264	0.558891	98.471655	6.400947	0.073072	30.608643	30.608643	30.608643	0.447282	3.684762	2.830000	1.157312	0.442122	-22.338047
296.517063	0.224677	0.519728	0.566213	98.513758	6.362284	0.071439	29.934376	29.934376	29.934376	0.442385	3.679747	2.830000	1.170179	0.444809	-21.628692
300.788252	0.230653	0.525192	0.573609	98.554369	6.325008	0.069832	29.257927	29.257927	29.257927	0.437487	3.674713	2.830000	1.182791	0.447430	-20.915832
305.120965	0.236771	0.530653	0.581079	98.593472	6.289102	0.068251	28.579372	28.579372	28.579372	0.432590	3.669654	2.830000	1.195134	0.449985	-20.199565
309.516090	0.243034	0.536108	0.588623	98.631055	6.254546	0.066698	27.898791	27.898791	27.898791	0.427695	3.664566	2.830000	1.207195	0.452471	-19.479987
313.974523	0.249445	0.541554	0.596241	98.667102	6.221325	0.065170	27.216263	27.216263	27.216263	0.422802	3.659445	2.830000	1.218960	0.454887	-18.757199
318.497179	0.256006	0.546987	0.603932	98.701601	6.189421	0.063668	26.531866	26.531866	26.531866	0.417913	3.654285	2.830000	1.230416	0.457232	-18.031299
323.084981	0.262719	0.552403	0.611695	98.734537	6.158819	0.062193	25.845681	25.845681	25.845681	0.413029	3.649083	2.830000	1.241551	0.459504	-17.302390
327.738869	0.269587	0.557800	0.619531	98.765898	6.129503	0.060742	25.157790	25.157790	25.157790	0.408151	3.643832	2.830000	1.252350	0.461701	-16.570574
332.459793	0.276612	0.563173	0.627438	98.795670	6.101459	0.059318	24.468273	24.468273	24.468273	0.403281	3.638529	2.830000	1.262803	0.463824	-15.835955
337.248720	0.283797	0.568518	0.635416	98.823840	6.074672	0.057918	23.777212	23.777212	23.777212	0.398421	3.633169	2.830000	1.272896	0.465869	-15.098636
342.106630	0.291143	0.573831	0.643464	98.850394	6.049131	0.056543	23.084688	23.084688	23.084688	0.393570	3.627745	2.830000	1.282617	0.467836	-14.358724
347.034515	0.298653	0.579107	0.651582	98.875321	6.024821	0.055193	22.390784	22.390784	22.390784	0.388731	3.622254	2.830000	1.291956	0.469723	-13.616325
352.033384	0.306329	0.584342	0.659768	98.898607	6.001731	0.053867	21.695580	21.695580	21.695580	0.383905	3.616688	2.830000	1.300900	0.471531	-12.871547
357.104260	0.314173	0.589532	0.668021	98.920239	5.979848	0.052566	20.999159	20.999159	20.999159	0.379094	3.611045	2.830000	1.309440	0.473256	-12.124496
362.248179	0.322187	0.594670	0.676341	98.940206	5.959163	0.051289	20.301602	20.301602	20.301602	0.374298	3.605316	2.830000	1.317564	0.474899	-11.375282
367.466194	0.330372	0.599753	0.684726	98.958495	5.939663	0.050036	19.602990	19.602990	19.602990	0.369520	3.599498	2.830000	1.325262	0.476458	-10.624014
372.759372	0.338731	0.604774	0.693174	98.975093	5.921340	0.048806	18.903402	18.903402	18.903402	0.364760	3.593584	2.830000	1.332526	0.477932	-9.870803
378.128796	0.347265	0.609729	0.701686	98.989988	5.904184	0.047600	18.202919	18.202919	18.202919	0.360020	3.587568	2.830000	1.339347	0.479321	-9.115758
383.575563	0.355976	0.614611	0.710258	99.003169	5.888185	0.046416	17.501619	17.501619	17.501619	0.355302	3.581444	2.830000	1.345715	0.480624	-8.358991
389.100789	0.364865	0.619415	0.718889	99.014623	5.873335	0.045256	16.799581	16.799581	16.799581	0.350606	3.575206	2.830000	1.351623	0.481839	-7.600613
394.705603	0.373933	0.624135	0.727578	99.024338	5.859626	0.044119	16.096880	16.096880	16.096880	0.345934	3.568847	2.830000	1.357064	0.482966	-6.840736
400.391152	0.383181	0.628764	0.736323	99.032302	5.847050	0.043003	15.393593	15.393593	15.393593	0.341288	3.562361	2.830000	1.362030	0.484005	-6.079472
406.158599	0.392611	0.633295	0.745122	99.038504	5.835601	0.041910	14.689794	14.689794	14.689794	0.336669	3.555741	2.830000	1.366516	0.484954	-5.316933
412.009123	0.402223	0.637723	0.753972	99.042931	5.825271	0.040840	13.985556	13.985556	13.985556	0.332079	3.548980	2.830000	1.370515	0.485814	-4.553232
417.943921	0.412017	0.642040	0.762872	99.045571	5.816055	0.039790	13.280950	13.280950	13.280950	0.327518	3.542071	2.830000	1.374024	0.486584	-3.788481
423.964207	0.421995	0.646239	0.771819	99.046414	5.807946	0.038763	12.576045	12.576045	12.576045	0.322989	3.535006	2.830000	1.377037	0.487263	-3.022793
430.071212	0.432155	0.650313	0.780810	99.045445	5.800940	0.037756	11.870908	11.870908	11.870908	0.318492	3.527778	2.830000	1.379551	0.487852	-2.256281
436.266186	0.442499	0.654254	0.789844	99.042655	5.795032	0.036770	11.165606	11.165606	11.165606	0.314029	3.520379	2.830000	1.381562	0.488349	-1.489057
442.550395	0.453025	0.658054	0.798916	99.038029	5.790216	0.035806	10.460202	10.460202	10.460202	0.309601	3.512801	2.830000	1.383069	0.488756	-0.721233
448.925126	0.463734	0.661706	0.808025	99.031557	5.786489	0.034861	9.754755	9.754755	9.754755	0.305210	3.505036	2.830000	1.384068	0.489070	0.047078
455.391681	0.474624	0.665202	0.817166	99.023226	5.783848	0.033937	9.049326	9.049326	9.049326	0.300857	3.497076	2.830000	1.384561	0.489294	0.815764
461.951385	0.485693	0.668532	0.826337	99.013023	5.782290	0.033033	8.343968	8.343968	8.343968	0.296543	3.488910	2.830000	1.384544	0.489425	1.584715
468.605578	0.496942	0.671689	0.835534	99.000936	5.781811	0.032149	7.638736	7.638736	7.638736	0.292269	3.480531	2.830000	1.384020	0.489466	2.353819
475.355621	0.508367	0.674665	0.844754	98.986951	5.782409	0.031283	6.933679	6.933679	6.933679	0.288038	3.471929	2.830000	1.382989	0.489415	3.122964
482.202895	0.519966	0.677449	0.853992	98.971056	5.784082	0.030438	6.228843	6.228843	6.228843	0.283850	3.463094	2.830000	1.381451	0.489274	3.892042
489.148802	0.531738	0.680033	0.863244	98.953236	5.786830	0.029611	5.524273	5.524273	5.524273	0.279705	3.454016	2.830000	1.379411	0.489042	4.660943
496.194760	0.543678	0.682408	0.872506	98.933479	5.790649	0.028802	4.820008	4.820008	4.820008	0.275607	3.444686	2.830000	1.376869	0.488719	5.429558
503.342213	0.555784	0.684565	0.881774	98.911770	5.795541	0.028012	4.116084	4.116084	4.116084	0.271555	3.435092	2.830000	1.373830	0.488306	6.197778
510.592621	0.568052	0.686494	0.891043	98.888094	5.801505	0.027240	3.412535	3.412535	3.412535	0.267551	3.425223	2.830000	1.370298	0.487804	6.965498
517.947468	0.580477	0.688186	0.900308	98.862437	5.808540	0.026486	2.709389	2.709389	2.709389	0.263596	3.415068	2.830000	1.366277	0.487214	7.732609
525.408258	0.593055	0.689631	0.909563	98.834783	5.816647	0.025750	2.006670	2.006670	2.006670	0.259690	3.404616	2.830000	1.361773	0.486535	8.499007
532.976517	0.605781	0.690819	0.918804	98.805117	5.825827	0.025030	1.304399	1.304399	1.304399	0.255836	3.393854	2.830000	1.356791	0.485768	9.264588
540.653794	0.618648	0.691740	0.928024	98.773421	5.836081	0.024328	0.602592	0.602592	0.602592	0.252034	3.382771	2.830000	1.351338	0.484914	10.029247
548.441658	0.631651	0.692385	0.937219	98.739679	5.847411	0.023642	-0.098739	-0.098739	-0.098739	0.248285	3.371353	2.830000	1.345421	0.483975	10.792883
556.341702	0.644782	0.692743	0.946381	98.703872	5.859819	0.022973	-0.799587	-0.799587	-0.799587	0.244591	3.359587	2.830000	1.339047	0.482950	11.555394
564.355543	0.658035	0.692805	0.955505	98.665984	5.873307	0.022320	-1.499951	-1.499951	-1.499951	0.240951	3.347459	2.830000	1.332225	0.481841	12.316682
572.484820	0.671401	0.692562	0.964583	98.625993	5.887878	0.021683	-2.199832	-2.199832	-2.199832	0.237367	3.334956	2.830000	1.324962	0.480649	13.076646
580.731195	0.684871	0.692002	0.973609	98.583880	5.903535	0.021061	-2.899239	-2.899239	-2.899239	0.233839	3.322064	2.830000	1.317269	0.479374	13.835191
589.096355	0.698437	0.691116	0.982576	98.539625	5.920282	0.020455	-3.598184	-3.598184	-3.598184	0.230369	3.308767	2.830000	1.309154	0.478018	14.592219
597.582011	0.712087	0.689896	0.991476	98.493204	5.938123	0.019864	-4.296685	-4.296685	-4.296685	0.226957	3.295050	2.830000	1.300627	0.476582	15.347638
606.189899	0.725813	0.688330	1.000302	98.444596	5.957063	0.019288	-4.994766	-4.994766	-4.994766	0.223604	3.280898	2.830000	1.291699	0.475066	16.101354
614.921780	0.739602	0.686411	1.009045	98.393777	5.977105	0.018726	-5.692455	-5.692455	-5.692455	0.220310	3.266294	2.830000	1.282380	0.473473	16.853276
623.779440	0.753442	0.684129	1.017697	98.340721	5.998256	0.018178	-6.389786	-6.389786	-6.389786	0.217076	3.251223	2.830000	1.272681	0.471804	17.603314
632.764690	0.767321	0.681475	1.026250	98.285401	6.020521	0.017645	-7.086798	-7.086798	-7.086798	0.213902	3.235667	2.830000	1.262614	0.470059	18.351380
641.879368	0.781224	0.678440	1.034695	98.227791	6.043906	0.017125	-7.783537	-7.783537	-7.783537	0.210789	3.219609	2.830000	1.252190	0.468240	19.097389
651.125339	0.795139	0.675018	1.043022	98.167861	6.068418	0.016618	-8.480052	-8.480052	-8.480052	0.207738	3.203032	2.830000	1.241421	0.466349	19.841255
660.504493	0.809049	0.671200	1.051223	98.105581	6.094064	0.016125	-9.176399	-9.176399	-9.176399	0.204747	3.185917	2.830000	1.230320	0.464386	20.582896
670.018750	0.822940	0.666978	1.059288	98.040919	6.120850	0.015644	-9.872639	-9.872639	-9.872639	0.201818	3.168246	2.830000	1.218898	0.462354	21.322230
679.670056	0.836794	0.662347	1.067206	97.973841	6.148785	0.015176	-10.568837	-10.568837	-10.568837	0.198950	3.150000	2.830000	1.207168	0.460253	22.059178
689.460384	0.850594	0.657301	1.074967	97.904313	6.177878	0.014720	-11.265066	-11.265066	-11.265066	0.196144	3.131162	2.830000	1.195144	0.458086	22.793663
699.391737	0.864323	0.651833	1.082561	97.832296	6.208137	0.014277	-11.961400	-11.961400	-11.961400	0.193399	3.111710	2.830000	1.182837	0.455853	23.525608
709.466146	0.877961	0.645939	1.089978	97.757754	6.239572	0.013845	-12.657920	-12.657920	-12.657920	0.190715	3.091626	2.830000	1.170261	0.453557	24.254940
719.685673	0.891488	0.639615	1.097205	97.680644	6.272192	0.013425	-13.354712	-13.354712	-13.354712	0.188092	3.070891	2.830000	1.157429	0.451198	24.981586
730.052407	0.904886	0.632859	1.104232	97.600924	6.306008	0.013016	-14.051865	-14.051865	-14.051865	0.185529	3.049485	2.830000	1.144354	0.448778	25.705476
740.568469	0.918132	0.625668	1.111048	97.518550	6.341030	0.012618	-14.749471	-14.749471	-14.749471	0.183026	3.027387	2.830000	1.131049	0.446300	26.426539
751.236010	0.931206	0.618041	1.117639	97.433475	6.377271	0.012231	-15.447625	-15.447625	-15.447625	0.180582	3.004579	2.830000	1.117528	0.443763	27.144709
762.057212	0.944084	0.609977	1.123996	97.345650	6.414742	0.011854	-16.146428	-16.146428	-16.146428	0.178196	2.981040	2.830000	1.103803	0.441171	27.859920
773.034288	0.956744	0.601479	1.130104	97.255024	6.453456	0.011488	-16.845981	-16.845981	-16.845981	0.175866	2.956752	2.830000	1.089888	0.438525	28.572106
784.169484	0.969162	0.592548	1.135952	97.161543	6.493427	0.011131	-17.546385	-17.546385	-17.546385	0.173593	2.931695	2.830000	1.075796	0.435825	29.281205
795.465078	0.981315	0.583187	1.141528	97.065152	6.534667	0.010785	-18.247745	-18.247745	-18.247745	0.171374	2.905851	2.830000	1.061540	0.433075	29.987155
806.923378	0.993178	0.573403	1.146818	96.965792	6.577193	0.010448	-18.950164	-18.950164	-18.950164	0.169208	2.879201	2.830000	1.047132	0.430275	30.689893
818.546731	1.004726	0.563201	1.151811	96.863404	6.621018	0.010120	-19.653747	-19.653747	-19.653747	0.167093	2.851728	2.830000	1.032587	0.427427	31.389361
830.337512	1.015934	0.552589	1.156493	96.757925	6.666160	0.009801	-20.358594	-20.358594	-20.358594	0.165028	2.823416	2.830000	1.017916	0.424532	32.085498
842.298134	1.026776	0.541577	1.160851	96.649290	6.712634	0.009492	-21.064805	-21.064805	-21.064805	0.163010	2.794249	2.830000	1.003132	0.421593	32.778247
854.431043	1.037228	0.530175	1.164873	96.537431	6.760458	0.009190	-21.772475	-21.772475	-21.772475	0.161038	2.764213	2.830000	0.988248	0.418611	33.467547
866.738721	1.047264	0.518399	1.168545	96.422280	6.809650	0.008898	-22.481695	-22.481695	-22.481695	0.159108	2.733294	2.830000	0.973276	0.415587	34.153342
879.223685	1.056857	0.506260	1.171856	96.303764	6.860229	0.008613	-23.192550	-23.192550	-23.192550	0.157219	2.701481	2.830000	0.958228	0.412523	34.835572
891.888489	1.065984	0.493778	1.174793	96.181811	6.912214	0.008336	-23.905116	-23.905116	-23.905116	0.155367	2.668766	2.830000	0.943116	0.409420	35.514179
904.735724	1.074618	0.480970	1.177343	96.056345	6.965627	0.008068	-24.619462	-24.619462	-24.619462	0.153549	2.635139	2.830000	0.927951	0.406281	36.189104
917.768017	1.082736	0.467857	1.179494	95.927289	7.020488	0.007806	-25.335645	-25.335645	-25.335645	0.151763	2.600597	2.830000	0.912747	0.403106	36.860287
930.988035	1.090313	0.454462	1.181236	95.794565	7.076819	0.007552	-26.053712	-26.053712	-26.053712	0.150005	2.565136	2.830000	0.897512	0.399897	37.527667
944.398480	1.097326	0.440808	1.182555	95.658093	7.134643	0.007306	-26.773694	-26.773694	-26.773694	0.148271	2.528757	2.830000	0.882260	0.396656	38.191182
958.002097	1.103754	0.426925	1.183443	95.517795	7.193985	0.007066	-27.495609	-27.495609	-27.495609	0.146558	2.491463	2.830000	0.867001	0.393384	38.850767
971.801667	1.109574	0.412839	1.183888	95.373589	7.254867	0.006833	-28.219455	-28.219455	-28.219455	0.144861	2.453260	2.830000	0.851745	0.390083	39.506356
985.800014	1.114768	0.398582	1.183881	95.225396	7.317317	0.006606	-28.945215	-28.945215	-28.945215	0.143178	2.414160	2.830000	0.836504	0.386754	40.157882
1000.000000	1.119316	0.384188	1.183414	95.073136	7.381359	0.006386	-29.672847	-29.672847	-29.672847	0.141503	2.374176	2.830000	0.821287	0.383398	40.805273
1014.404530	1.123203	0.369691	1.182479	94.916732	7.447020	0.006173	-30.402290	-30.402290	-30.402290	0.139833	2.333328	2.830000	0.806105	0.380018	41.448457
1029.016551	1.126414	0.355129	1.181069	94.756106	7.514329	0.005965	-31.133457	-31.133457	-31.133457	0.138163	2.291638	2.830000	0.790968	0.376614	42.087358
1043.839051	1.128935	0.340541	1.179179	94.591186	7.583313	0.005763	-31.866235	-31.866235	-31.866235	0.136489	2.249134	2.830000	0.775885	0.373188	42.721895
1058.875063	1.130758	0.325967	1.176804	94.421902	7.654002	0.005567	-32.600484	-32.600484	-32.600484	0.134806	2.205851	2.830000	0.760866	0.369741	43.351986
1074.127661	1.131874	0.311450	1.173942	94.248189	7.726424	0.005377	-33.336034	-33.336034	-33.336034	0.133110	2.161825	2.830000	0.745921	0.366276	43.977545
1089.599965	1.132278	0.297036	1.170591	94.069988	7.800610	0.005192	-34.072686	-34.072686	-34.072686	0.131396	2.117101	2.830000	0.731058	0.362792	44.598482
1105.295141	1.131969	0.282768	1.166752	93.887245	7.876590	0.005012	-34.810208	-34.810208	-34.810208	0.129661	2.071728	2.830000	0.716285	0.359293	45.214704
1121.216399	1.130948	0.268695	1.162429	93.699917	7.954395	0.004838	-35.548334	-35.548334	-35.548334	0.127900	2.025762	2.830000	0.701613	0.355778	45.826113
1137.366994	1.129220	0.254864	1.157624	93.507968	8.034056	0.004669	-36.286766	-36.286766	-36.286766	0.126108	1.979262	2.830000	0.687049	0.352250	46.432611
1153.750232	1.126794	0.241325	1.152346	93.311373	8.115605	0.004504	-37.025172	-37.025172	-37.025172	0.124283	1.932296	2.830000	0.672602	0.348711	47.034092
1170.369462	1.123682	0.228126	1.146604	93.110120	8.199073	0.004344	-37.763185	-37.763185	-37.763185	0.122421	1.884935	2.830000	0.658279	0.345161	47.630451
1187.228084	1.119900	0.215317	1.140411	92.904211	8.284491	0.004189	-38.500403	-38.500403	-38.500403	0.120518	1.837258	2.830000	0.644088	0.341602	48.221577
1204.329547	1.115470	0.202949	1.133782	92.693663	8.371891	0.004039	-39.236392	-39.236392	-39.236392	0.118572	1.789346	2.830000	0.630037	0.338036	48.807360
1221.677349	1.110417	0.191069	1.126736	92.478511	8.461304	0.003893	-39.970684	-39.970684	-39.970684	0.116579	1.741288	2.830000	0.616133	0.334464	49.387685
1239.275037	1.104770	0.179726	1.119293	92.258809	8.552759	0.003752	-40.702780	-40.702780	-40.702780	0.114539	1.693176	2.830000	0.602384	0.330887	49.962439
1257.126212	1.098563	0.168967	1.111481	92.034631	8.646288	0.003614	-41.432152	-41.432152	-41.432152	0.112449	1.645105	2.830000	0.588795	0.327308	50.531505
1275.234525	1.091835	0.158838	1.103328	91.806075	8.741919	0.003481	-42.158244	-42.158244	-42.158244	0.110309	1.597175	2.830000	0.575373	0.323728	51.094768
1293.603680	1.084630	0.149381	1.094868	91.573262	8.839682	0.003352	-42.880476	-42.880476	-42.880476	0.108119	1.549488	2.830000	0.562124	0.320147	51.652116
1312.237433	1.076995	0.140636	1.086139	91.336342	8.939604	0.003227	-43.598247	-43.598247	-43.598247	0.105878	1.502149	2.830000	0.549055	0.316569	52.203434
1331.139597	1.068984	0.132642	1.077182	91.095489	9.041713	0.003106	-44.310938	-44.310938	-44.310938	0.103587	1.455261	2.830000	0.536170	0.312994	52.748615
1350.314038	1.060652	0.125432	1.068043	90.850910	9.146033	0.002988	-45.017916	-45.017916	-45.017916	0.101249	1.408931	2.830000	0.523474	0.309424	53.287551
1369.764677	1.052062	0.119035	1.058774	90.602838	9.252590	0.002874	-45.718542	-45.718542	-45.718542	0.098865	1.363263	2.830000	0.510974	0.305860	53.820143
1389.495494	1.043277	0.113475	1.049431	90.351539	9.361407	0.002764	-46.412171	-46.412171	-46.412171	0.096438	1.318359	2.830000	0.498671	0.302305	54.346295
1409.510524	1.034368	0.108772	1.040071	90.097312	9.472507	0.002658	-47.098159	-47.098159	-47.098159	0.093971	1.274320	2.830000	0.486572	0.298759	54.865917
1429.813862	1.025405	0.104939	1.030760	89.840484	9.585910	0.002555	-47.775872	-47.775872	-47.775872	0.091470	1.231241	2.830000	0.474679	0.295225	55.378929
1450.409659	1.016463	0.101983	1.021566	89.581414	9.701637	0.002455	-48.444687	-48.444687	-48.444687	0.088939	1.189213	2.830000	0.462995	0.291703	55.885259
1471.302129	1.007619	0.099904	1.012559	89.320491	9.819705	0.002359	-49.104000	-49.104000	-49.104000	0.086383	1.148322	2.830000	0.451523	0.288196	56.384842
1492.495545	0.998950	0.098695	1.003814	89.058127	9.940133	0.002266	-49.753233	-49.753233	-49.753233	0.083808	1.108645	2.830000	0.440265	0.284704	56.877626
1513.994242	0.990538	0.098340	0.995407	88.794763	10.062935	0.002176	-50.391838	-50.391838	-50.391838	0.081221	1.070254	2.830000	0.429224	0.281230	57.363566
1535.802619	0.982459	0.098818	0.987416	88.530857	10.188129	0.002090	-51.019306	-51.019306	-51.019306	0.078629	1.033210	2.830000	0.418400	0.277774	57.842632
1557.925134	0.974794	0.100095	0.979920	88.266883	10.315726	0.002006	-51.635169	-51.635169	-51.635169	0.076038	0.997567	2.830000	0.407794	0.274338	58.314804
1580.366314	0.967619	0.102133	0.972994	88.003324	10.445741	0.001926	-52.239008	-52.239008	-52.239008	0.073457	0.963366	2.830000	0.397407	0.270924	58.780071
1603.130749	0.961007	0.104883	0.966714	87.740666	10.578187	0.001848	-52.830460	-52.830460	-52.830460	0.070894	0.930641	2.830000	0.387239	0.267532	59.238438
1626.223094	0.955030	0.108287	0.961150	87.479391	10.713075	0.001774	-53.409218	-53.409218	-53.409218	0.068355	0.899413	2.830000	0.377289	0.264163	59.689920
1649.648074	0.949753	0.112280	0.956367	87.219967	10.850416	0.001702	-53.975040	-53.975040	-53.975040	0.065850	0.869693	2.830000	0.367557	0.260819	60.134544
1673.410480	0.945236	0.116787	0.952424	86.962840	10.990223	0.001632	-54.527750	-54.527750	-54.527750	0.063385	0.841480	2.830000	0.358042	0.257502	60.572347
1697.515172	0.941532	0.121727	0.949368	86.708425	11.132506	0.001566	-55.067244	-55.067244	-55.067244	0.060970	0.814764	2.830000	0.348743	0.254211	61.003380
1721.967081	0.938685	0.127011	0.947239	86.457095	11.277277	0.001502	-55.593489	-55.593489	-55.593489	0.058611	0.789523	2.830000	0.339656	0.250947	61.427703
1746.771208	0.936730	0.132543	0.946061	86.209175	11.424548	0.001440	-56.106528	-56.106528	-56.106528	0.056315	0.765723	2.830000	0.330781	0.247712	61.845385
1771.932627	0.935693	0.138222	0.945847	85.964930	11.574330	0.001381	-56.606481	-56.606481	-56.606481	0.054090	0.743323	2.830000	0.322114	0.244507	62.256505
1797.456484	0.935587	0.143941	0.946595	85.724560	11.726638	0.001325	-57.093542	-57.093542	-57.093542	0.051942	0.722271	2.830000	0.313654	0.241331	62.661152
1823.348001	0.936414	0.149593	0.948287	85.488190	11.881484	0.001270	-57.567982	-57.567982	-57.567982	0.049878	0.702505	2.830000	0.305396	0.238186	63.059421
1849.612473	0.938161	0.155065	0.950889	85.255871	12.038883	0.001218	-58.030146	-58.030146	-58.030146	0.047901	0.683958	2.830000	0.297339	0.235072	63.451415
1876.255272	0.940803	0.160246	0.954353	85.027569	12.198852	0.001168	-58.480451	-58.480451	-58.480451	0.046017	0.666553	2.830000	0.289478	0.231989	63.837241
1903.281848	0.944301	0.165028	0.958613	84.803170	12.361408	0.001120	-58.919381	-58.919381	-58.919381	0.044230	0.650210	2.830000	0.281811	0.228938	64.217013
1930.697729	0.948602	0.169302	0.963591	84.582478	12.526570	0.001074	-59.347486	-59.347486	-59.347486	0.042542	0.634839	2.830000	0.274333	0.225920	64.590848
1958.508523	0.953636	0.172969	0.969195	84.365217	12.694358	0.001030	-59.765373	-59.765373	-59.765373	0.040957	0.620351	2.830000	0.267041	0.222934	64.958867
1986.719919	0.959322	0.175934	0.975321	84.151037	12.864795	0.000987	-60.173700	-60.173700	-60.173700	0.039474	0.606652	2.830000	0.259931	0.219980	65.321191
2015.337686	0.965564	0.178113	0.981854	83.939518	13.037905	0.000947	-60.573172	-60.573172	-60.573172	0.038095	0.593644	2.830000	0.253000	0.217059	65.677945
2044.367679	0.972254	0.179433	0.988673	83.730181	13.213714	0.000908	-60.964528	-60.964528	-60.964528	0.036820	0.581232	2.830000	0.246242	0.214171	66.029253
2073.815835	0.979272	0.179835	0.995648	83.522494	13.392249	0.000871	-61.348534	-61.348534	-61.348534	0.035645	0.569320	2.830000	0.239656	0.211316	66.375238
2103.688178	0.986490	0.179277	1.002648	83.315882	13.573542	0.000835	-61.725974	-61.725974	-61.725974	0.034569	0.557813	2.830000	0.233235	0.208494	66.716022
2133.990819	0.993770	0.177732	1.009538	83.109740	13.757623	0.000801	-62.097633	-62.097633	-62.097633	0.033587	0.546620	2.830000	0.226977	0.205704	67.051725
2164.729954	1.000971	0.175193	1.016187	82.903443	13.944528	0.000768	-62.464292	-62.464292	-62.464292	0.032696	0.535655	2.830000	0.220878	0.202947	67.382463
2195.911873	1.007948	0.171673	1.022464	82.696356	14.134292	0.000737	-62.826711	-62.826711	-62.826711	0.031890	0.524836	2.830000	0.214934	0.200222	67.708351
2227.542952	1.014557	0.167209	1.028243	82.487848	14.326955	0.000707	-63.185615	-63.185615	-63.185615	0.031161	0.514089	2.830000	0.209142	0.197530	68.029496
2259.629662	1.020656	0.161856	1.033410	82.277303	14.522556	0.000678	-63.541685	-63.541685	-63.541685	0.030502	0.503347	2.830000	0.203496	0.194869	68.346003
2292.178566	1.026112	0.155693	1.037856	82.064132	14.721138	0.000651	-63.895541	-63.895541	-63.895541	0.029906	0.492553	2.830000	0.197995	0.192241	68.657970
2325.196322	1.030801	0.148819	1.041488	81.847786	14.922746	0.000624	-64.247728	-64.247728	-64.247728	0.029362	0.481658	2.830000	0.192635	0.189643	68.965490
2358.689683	1.034614	0.141356	1.044226	81.627766	15.127424	0.000599	-64.598708	-64.598708	-64.598708	0.028862	0.470626	2.830000	0.187411	0.187077	69.268649
2392.665500	1.037460	0.133439	1.046007	81.403635	15.335221	0.000575	-64.948844	-64.948844	-64.948844	0.028396	0.459432	2.830000	0.182321	0.184542	69.567527
2427.130723	1.039269	0.125225	1.046786	81.175034	15.546186	0.000551	-65.298392	-65.298392	-65.298392	0.027953	0.448062	2.830000	0.177362	0.182038	69.862199
2462.092401	1.039994	0.116881	1.046541	80.941688	15.760368	0.000529	-65.647495	-65.647495	-65.647495	0.027523	0.436515	2.830000	0.172530	0.179564	70.152730
2497.557686	1.039617	0.108581	1.045272	80.703422	15.977819	0.000507	-65.996172	-65.996172	-65.996172	0.027097	0.424802	2.830000	0.167823	0.177121	70.439180
2533.533832	1.038149	0.100508	1.043003	80.460169	16.198590	0.000487	-66.344321	-66.344321	-66.344321	0.026665	0.412946	2.830000	0.163237	0.174707	70.721605
2570.028197	1.035630	0.092841	1.039783	80.211982	16.422735	0.000467	-66.691719	-66.691719	-66.691719	0.026218	0.400982	2.830000	0.158770	0.172322	71.000051
2607.048246	1.032132	0.085755	1.035689	79.959041	16.650304	0.000448	-67.038023	-67.038023	-67.038023	0.025748	0.388953	2.830000	0.154419	0.169967	71.274563
2644.601552	1.027760	0.079415	1.030824	79.701660	16.881352	0.000429	-67.382780	-67.382780	-67.382780	0.025250	0.376915	2.830000	0.150182	0.167641	71.545178
2682.695795	1.022646	0.073965	1.025317	79.440288	17.115929	0.000412	-67.725440	-67.725440	-67.725440	0.024718	0.364926	2.830000	0.146055	0.165343	71.811930
2721.338768	1.016950	0.069532	1.019324	79.175512	17.354089	0.000395	-68.065372	-68.065372	-68.065372	0.024148	0.353055	2.830000	0.142038	0.163074	72.074851
2760.538375	1.010856	0.066208	1.013022	78.908045	17.595881	0.000379	-68.401883	-68.401883	-68.401883	0.023539	0.341369	2.830000	0.138126	0.160833	72.333970
2800.302634	1.004566	0.064057	1.006606	78.638719	17.841357	0.000363	-68.734240	-68.734240	-68.734240	0.022891	0.329938	2.830000	0.134318	0.158620	72.589315
2840.639679	0.998295	0.063103	1.000287	78.368464	18.090566	0.000348	-69.061700	-69.061700	-69.061700	0.022206	0.318831	2.830000	0.130611	0.156435	72.840914
2881.557759	0.992263	0.063329	0.994281	78.098277	18.343557	0.000333	-69.383535	-69.383535	-69.383535	0.021487	0.308109	2.830000	0.127004	0.154278	73.088797
2923.065245	0.986688	0.064678	0.988806	77.829193	18.600378	0.000320	-69.699060	-69.699060	-69.699060	0.020742	0.297831	2.830000	0.123493	0.152147	73.332994
2965.170628	0.981779	0.067049	0.984065	77.562242	18.861075	0.000306	-70.007664	-70.007664	-70.007664	0.019976	0.288043	2.830000	0.120078	0.150044	73.573540
3007.882518	0.977722	0.070297	0.980246	77.298397	19.125697	0.000294	-70.308836	-70.308836	-70.308836	0.019198	0.278780	2.830000	0.116754	0.147968	73.810471
3051.209653	0.974680	0.074243	0.977503	77.038530	19.394289	0.000281	-70.602191	-70.602191	-70.602191	0.018419	0.270066	2.830000	0.113521	0.145919	74.043828
3095.160895	0.972773	0.078673	0.975949	76.783357	19.666897	0.000269	-70.887487	-70.887487	-70.887487	0.017647	0.261912	2.830000	0.110376	0.143897	74.273656
3139.745234	0.972083	0.083347	0.975650	76.533394	19.943569	0.000258	-71.164645	-71.164645	-71.164645	0.016894	0.254311	2.830000	0.107317	0.141900	74.500005
3184.971790	0.972639	0.088011	0.976612	76.288916	20.224352	0.000247	-71.433758	-71.433758	-71.433758	0.016170	0.247246	2.830000	0.104342	0.139930	74.722928
3230.849813	0.974415	0.092400	0.978786	76.049932	20.509294	0.000237	-71.695091	-71.695091	-71.695091	0.015484	0.240683	2.830000	0.101448	0.137986	74.942482
3277.388687	0.977329	0.096260	0.982058	75.816171	20.798445	0.000227	-71.949080	-71.949080	-71.949080	0.014845	0.234579	2.830000	0.098633	0.136068	75.158729
3324.597932	0.981246	0.099352	0.986263	75.587085	21.091856	0.000218	-72.196313	-72.196313	-72.196313	0.014260	0.228877	2.830000	0.095896	0.134175	75.371732
3372.487204	0.985974	0.101468	0.991181	75.361872	21.389582	0.000209	-72.437518	-72.437518	-72.437518	0.013733	0.223516	2.830000	0.093234	0.132307	75.581557
3421.066299	0.991277	0.102446	0.996557	75.139513	21.691676	0.000200	-72.673525	-72.673525	-72.673525	0.013268	0.218426	2.830000	0.090645	0.130465	75.788270
3470.345152	0.996885	0.102177	1.002107	74.918817	21.998199	0.000192	-72.905238	-72.905238	-72.905238	0.012866	0.213536	2.830000	0.088126	0.128647	75.991938
3520.333844	1.002499	0.100614	1.007536	74.698488	22.309211	0.000184	-73.133592	-73.133592	-73.133592	0.012523	0.208775	2.830000	0.085677	0.126853	76.192626
3571.042600	1.007816	0.097783	1.012549	74.477187	22.624774	0.000176	-73.359505	-73.359505	-73.359505	0.012237	0.204077	2.830000	0.083295	0.125084	76.390400
3622.481792	1.012539	0.093779	1.016872	74.253607	22.944955	0.000169	-73.583836	-73.583836	-73.583836	0.012000	0.199382	2.830000	0.080978	0.123339	76.585318
3674.661941	1.016394	0.088773	1.020264	74.026542	23.269824	0.000162	-73.807336	-73.807336	-73.807336	0.011803	0.194643	2.830000	0.078725	0.121617	76.777440
3727.593720	1.019155	0.082996	1.022529	73.794957	23.599450	0.000155	-74.030603	-74.030603	-74.030603	0.011635	0.189820	2.830000	0.076533	0.119918	76.966818
3781.287957	1.020654	0.076737	1.023535	73.558052	23.933906	0.000149	-74.254051	-74.254051	-74.254051	0.011486	0.184894	2.830000	0.074401	0.118242	77.153501
3835.755635	1.020797	0.070324	1.023216	73.315319	24.273268	0.000142	-74.477876	-74.477876	-74.477876	0.011343	0.179857	2.830000	0.072327	0.116589	77.337533
3891.007893	1.019575	0.064104	1.021589	73.066587	24.617611	0.000136	-74.702042	-74.702042	-74.702042	0.011195	0.174718	2.830000	0.070310	0.114958	77.518951
3947.056035	1.017071	0.058424	1.018748	72.812054	24.967011	0.000131	-74.926283	-74.926283	-74.926283	0.011029	0.169502	2.830000	0.068348	0.113350	77.697790
4003.911523	1.013456	0.053603	1.014873	72.552302	25.321546	0.000125	-75.150110	-75.150110	-75.150110	0.010837	0.164247	2.830000	0.066440	0.111763	77.874080
4061.585988	1.008986	0.049912	1.010219	72.288289	25.681293	0.000120	-75.372849	-75.372849	-75.372849	0.010613	0.159000	2.830000	0.064584	0.110197	78.047846
4120.091227	1.003984	0.047548	1.005109	72.021311	26.046328	0.000115	-75.593682	-75.593682	-75.593682	0.010351	0.153818	2.830000	0.062779	0.108653	78.219113
4179.439206	0.998825	0.046613	0.999912	71.752934	26.416727	0.000110	-75.811707	-75.811707	-75.811707	0.010052	0.148759	2.830000	0.061025	0.107129	78.387903
4239.642065	0.993905	0.047108	0.995020	71.484897	26.792565	0.000106	-76.026008	-76.026008	-76.026008	0.009719	0.143878	2.830000	0.059318	0.105626	78.554239
4300.712118	0.989611	0.048919	0.990820	71.218978	27.173917	0.000101	-76.235731	-76.235731	-76.235731	0.009357	0.139227	2.830000	0.057659	0.104144	78.718144
4362.661857	0.986294	0.051823	0.987654	70.956842	27.560857	0.000097	-76.440155	-76.440155	-76.440155	0.008974	0.134844	2.830000	0.056046	0.102682	78.879643
4425.503952	0.984229	0.055502	0.985793	70.699880	27.953458	0.000093	-76.638760	-76.638760	-76.638760	0.008584	0.130756	2.830000	0.054478	0.101240	79.038764
4489.251258	0.983594	0.059561	0.985396	70.449050	28.351794	0.000089	-76.831276	-76.831276	-76.831276	0.008197	0.126971	2.830000	0.052954	0.099817	79.195539
4553.916814	0.984444	0.063564	0.986494	70.204763	28.755940	0.000085	-77.017724	-77.017724	-77.017724	0.007826	0.123482	2.830000	0.051472	0.098414	79.350003
4619.513847	0.986701	0.067067	0.988978	69.966804	29.165972	0.000082	-77.198415	-77.198415	-77.198415	0.007484	0.120264	2.830000	0.050031	0.097031	79.502192
4686.055775	0.990152	0.069661	0.992599	69.734327	29.581967	0.000078	-77.373943	-77.373943	-77.373943	0.007179	0.117278	2.830000	0.048631	0.095666	79.652149
4753.556208	0.994462	0.071016	0.996995	69.505918	30.004007	0.000075	-77.545131	-77.545131	-77.545131	0.006919	0.114474	2.830000	0.047269	0.094321	79.799915
4822.028953	0.999204	0.070916	1.001717	69.279722	30.432174	0.000072	-77.712969	-77.712969	-77.712969	0.006707	0.111795	2.830000	0.045946	0.092994	79.945535
4891.488015	1.003891	0.069289	1.006280	69.053626	30.866554	0.000069	-77.878518	-77.878518	-77.878518	0.006542	0.109181	2.830000	0.044659	0.091685	80.089052
4961.947603	1.008032	0.066223	1.010205	68.825470	31.307238	0.000066	-78.042811	-78.042811	-78.042811	0.006419	0.106579	2.830000	0.043408	0.090394	80.230508
5033.422128	1.011178	0.061966	1.013075	68.593275	31.754318	0.000063	-78.206745	-78.206745	-78.206745	0.006328	0.103942	2.830000	0.042192	0.089122	80.369942
5105.926210	1.012979	0.056906	1.014576	68.355457	32.207890	0.000061	-78.370985	-78.370985	-78.370985	0.006259	0.101241	2.830000	0.041010	0.087867	80.507392
5179.474679	1.013231	0.051535	1.014541	68.111017	32.668052	0.000058	-78.535887	-78.535887	-78.535887	0.006197	0.098460	2.830000	0.039860	0.086629	80.642890
5254.082580	1.011905	0.046397	1.012968	67.859679	33.134903	0.000056	-78.701451	-78.701451	-78.701451	0.006129	0.095604	2.830000	0.038742	0.085408	80.776465
5329.765172	1.009163	0.042025	1.010038	67.601965	33.608545	0.000053	-78.867316	-78.867316	-78.867316	0.006042	0.092696	2.830000	0.037656	0.084205	80.908140
5406.537936	1.005349	0.038873	1.006101	67.339189	34.089078	0.000051	-79.032796	-79.032796	-79.032796	0.005927	0.089772	2.830000	0.036599	0.083018	81.037939
5484.416576	1.000954	0.037251	1.001647	67.073353	34.576604	0.000049	-79.196965	-79.196965	-79.196965	0.005778	0.086880	2.830000	0.035572	0.081847	81.165878
5563.417021	0.996559	0.037277	0.997256	66.806940	35.071223	0.000047	-79.358774	-79.358774	-79.358774	0.005595	0.084070	2.830000	0.034574	0.080693	81.291978
5643.555431	0.992761	0.038850	0.993520	66.542604	35.573036	0.000045	-79.517190	-79.517190	-79.517190	0.005383	0.081391	2.830000	0.033603	0.079555	81.416255
5724.848197	0.990091	0.041652	0.990966	66.282803	36.082141	0.000043	-79.671345	-79.671345	-79.671345	0.005150	0.078879	2.830000	0.032660	0.078432	81.538728
5807.311946	0.988932	0.045180	0.989963	66.029400	36.598639	0.000041	-79.820671	-79.820671	-79.820671	0.004910	0.076558	2.830000	0.031743	0.077325	81.659421
5890.963548	0.989453	0.048811	0.990657	65.783333	37.122629	0.000040	-79.964987	-79.964987	-79.964987	0.004677	0.074430	2.830000	0.030852	0.076234	81.778356
5975.820111	0.991575	0.051890	0.992932	65.544402	37.654213	0.000038	-80.104551	-80.104551	-80.104551	0.004465	0.072481	2.830000	0.029985	0.075158	81.895562
6061.898993	0.994962	0.053834	0.996417	65.311246	38.193495	0.000036	-80.240026	-80.240026	-80.240026	0.004285	0.070677	2.830000	0.029143	0.074096	82.011069
6149.217802	0.999067	0.054226	1.000537	65.081525	38.740581	0.000035	-80.372397	-80.372397	-80.372397	0.004144	0.068972	2.830000	0.028325	0.073050	82.124908
6237.794396	1.003208	0.052897	1.004601	64.852284	39.295583	0.000033	-80.502824	-80.502824	-80.502824	0.004043	0.067317	2.830000	0.027530	0.072018	82.237111
6327.646895	1.006679	0.049970	1.007919	64.620431	39.858614	0.000032	-80.632454	-80.632454	-80.632454	0.003977	0.065661	2.830000	0.026756	0.071001	82.347711
6418.793677	1.008872	0.045852	1.009914	64.383275	40.429792	0.000031	-80.762233	-80.762233	-80.762233	0.003936	0.063969	2.830000	0.026005	0.069998	82.456736
6511.253386	1.009393	0.041177	1.010233	64.138999	41.009239	0.000029	-80.892737	-80.892737	-80.892737	0.003906	0.062218	2.830000	0.025274	0.069009	82.564214
6605.044933	1.008147	0.036702	1.008815	63.887030	41.597078	0.000028	-81.024059	-81.024059	-81.024059	0.003871	0.060409	2.830000	0.024564	0.068034	82.670166
6700.187504	1.005375	0.033170	1.005922	63.628214	42.193433	0.000027	-81.155788	-81.155788	-81.155788	0.003817	0.058560	2.830000	0.023873	0.067072	82.774613
6796.700558	1.001623	0.031157	1.002108	63.364745	42.798432	0.000026	-81.287076	-81.287076	-81.287076	0.003735	0.056707	2.830000	0.023202	0.066124	82.877572
6894.603838	0.997652	0.030953	0.998132	63.099831	43.412198	0.000025	-81.416801	-81.416801	-81.416801	0.003621	0.054895	2.830000	0.022550	0.065189	82.979057
6993.917368	0.994286	0.032478	0.994817	62.837097	44.034857	0.000024	-81.543798	-81.543798	-81.543798	0.003479	0.053167	2.830000	0.021916	0.064267	83.079084
7094.661463	0.992245	0.035285	0.992872	62.579826	44.666534	0.000023	-81.667103	-81.667103	-81.667103	0.003319	0.051559	2.830000	0.021300	0.063358	83.177669
7196.856730	0.991976	0.038634	0.992728	62.330172	45.307353	0.000022	-81.786178	-81.786178	-81.786178	0.003155	0.050087	2.830000	0.020701	0.062462	83.274829
7300.524071	0.993535	0.041642	0.994407	62.088585	45.957440	0.000021	-81.901042	-81.901042	-81.901042	0.003004	0.048748	2.830000	0.020119	0.061579	83.370585
7405.684692	0.996558	0.043486	0.997506	61.853597	46.616925	0.000020	-82.012290	-82.012290	-82.012290	0.002879	0.047516	2.830000	0.019553	0.060708	83.464961
7512.360102	1.000319	0.043601	1.001268	61.622110	47.285938	0.000019	-82.120973	-82.120973	-82.120973	0.002788	0.046353	2.830000	0.019003	0.059849	83.557982
7620.572122	1.003890	0.041834	1.004761	61.390099	47.964615	0.000018	-82.228358	-82.228358	-82.228358	0.002731	0.045214	2.830000	0.018469	0.059002	83.649672
7730.342884	1.006368	0.038506	1.007105	61.153605	48.653098	0.000018	-82.335630	-82.335630	-82.335630	0.002702	0.044056	2.830000	0.017949	0.058167	83.740057
7841.694843	1.007111	0.034354	1.007697	60.909740	49.351531	0.000017	-82.443589	-82.443589	-82.443589	0.002686	0.042856	2.830000	0.017444	0.057344	83.829158
7954.650775	1.005923	0.030358	1.006381	60.657484	50.060059	0.000016	-82.552439	-82.552439	-82.552439	0.002666	0.041608	2.830000	0.016954	0.056532	83.916996
8069.233784	1.003135	0.027482	1.003512	60.398063	50.778834	0.000015	-82.661719	-82.661719	-82.661719	0.002628	0.040331	2.830000	0.016477	0.055732	84.003586
8185.467307	0.999540	0.026402	0.999888	60.134745	51.508005	0.000015	-82.770423	-82.770423	-82.770423	0.002563	0.039057	2.830000	0.016013	0.054943	84.088942
8303.375120	0.996185	0.027289	0.996559	59.872044	52.247721	0.000014	-82.877282	-82.877282	-82.877282	0.002468	0.037829	2.830000	0.015562	0.054165	84.173077
8422.981339	0.994075	0.029731	0.994519	59.614442	52.998132	0.000014	-82.981135	-82.981135	-82.981135	0.002354	0.036683	2.830000	0.015124	0.053398	84.256005
8544.310429	0.993856	0.032832	0.994398	59.364968	53.759388	0.000013	-83.081290	-83.081290	-83.081290	0.002233	0.035638	2.830000	0.014699	0.052642	84.337740
8667.387209	0.995593	0.035463	0.996224	59.124111	54.531640	0.000012	-83.177760	-83.177760	-83.177760	0.002125	0.034692	2.830000	0.014285	0.051896	84.418300
8792.236851	0.998716	0.036624	0.999387	58.889520	55.315043	0.000012	-83.271282	-83.271282	-83.271282	0.002042	0.033819	2.830000	0.013883	0.051161	84.497703
8918.884894	1.002176	0.035779	1.002815	58.656679	56.109754	0.000011	-83.363096	-83.363096	-83.363096	0.001991	0.032982	2.830000	0.013492	0.050437	84.575971
9047.357242	1.004783	0.033076	1.005327	58.420393	56.915936	0.000011	-83.454549	-83.454549	-83.454549	0.001968	0.032140	2.830000	0.013113	0.049722	84.653124
9177.680175	1.005615	0.029322	1.006043	58.176580	57.733758	0.000010	-83.546632	-83.546632	-83.546632	0.001959	0.031266	2.830000	0.012743	0.049018	84.729182
9309.880348	1.004377	0.025731	1.004706	57.923768	58.563390	0.000010	-83.639628	-83.639628	-83.639628	0.001947	0.030352	2.830000	0.012385	0.048324	84.804161
9443.984802	1.001535	0.023488	1.001811	57.663769	59.405006	0.000010	-83.732994	-83.732994	-83.732994	0.001917	0.029416	2.830000	0.012036	0.047639	84.878075
9580.020968	0.998188	0.023293	0.998460	57.401194	60.258780	0.000009	-83.825554	-83.825554	-83.825554	0.001859	0.028493	2.830000	0.011697	0.046964	84.950936
9718.016671	0.995659	0.025055	0.995975	57.141826	61.124888	0.000009	-83.915950	-83.915950	-83.915950	0.001777	0.027619	2.830000	0.011368	0.046299	85.022755
9858.000137	0.994974	0.027891	0.995365	56.890311	62.003502	0.000008	-84.003188	-84.003188	-84.003188	0.001685	0.026820	2.830000	0.011048	0.045643	85.093544
10000.000000	0.996412	0.030446	0.996877	56.648099	62.894799	0.000008	-84.087061	-84.087061	-84.087061	0.001600	0.026100	2.830000	0.010737	0.044996	85.163318
10144.045304	0.999349	0.031457	0.999844	56.412625	63.798958	0.000008	-84.168265	-84.168265	-84.168265	0.001537	0.025439	2.830000	0.010434	0.044358	85.232093
10290.165513	1.002485	0.030315	1.002943	56.178282	64.716161	0.000007	-84.248124	-84.248124	-84.248124	0.001504	0.024801	2.830000	0.010140	0.043729	85.299887
10438.390514	1.004396	0.027371	1.004769	55.938854	65.646598	0.000007	-84.328019	-84.328019	-84.328019	0.001493	0.024151	2.830000	0.009855	0.043110	85.366717
10588.750628	1.004196	0.023832	1.004479	55.690359	66.590461	0.000007	-84.408768	-84.408768	-84.408768	0.001490	0.023468	2.830000	0.009577	0.042499	85.432598
10741.276608	1.001989	0.021217	1.002213	55.433025	67.547948	0.000007	-84.490235	-84.490235	-84.490235	0.001474	0.022759	2.830000	0.009308	0.041896	85.497545
10895.999653	0.998868	0.020633	0.999081	55.171407	68.519257	0.000006	-84.571376	-84.571376	-84.571376	0.001435	0.022050	2.830000	0.009046	0.041302	85.561568
11052.951411	0.996417	0.022186	0.996664	54.912363	69.504586	0.000006	-84.650754	-84.650754	-84.650754	0.001372	0.021375	2.830000	0.008791	0.040717	85.624677
11212.163986	0.995908	0.024876	0.996219	54.661610	70.504137	0.000006	-84.727272	-84.727272	-84.727272	0.001298	0.020761	2.830000	0.008543	0.040139	85.686883
11373.669943	0.997605	0.027075	0.997972	54.420531	71.518108	0.000006	-84.800765	-84.800765	-84.800765	0.001233	0.020209	2.830000	0.008302	0.039570	85.748198
11537.502317	1.000566	0.027389	1.000940	54.185176	72.546704	0.000005	-84.872118	-84.872118	-84.872118	0.001191	0.019698	2.830000	0.008069	0.039009	85.808638
11703.694619	1.003115	0.025459	1.003438	53.948284	73.590135	0.000005	-84.942810	-84.942810	-84.942810	0.001176	0.019192	2.830000	0.007841	0.038456	85.868217
11872.280844	1.003776	0.022220	1.004022	53.703359	74.648616	0.000005	-85.014084	-85.014084	-85.014084	0.001174	0.018666	2.830000	0.007620	0.037911	85.926951
12043.295474	1.002165	0.019413	1.002353	53.448526	75.722368	0.000005	-85.086228	-85.086228	-85.086228	0.001167	0.018112	2.830000	0.007406	0.037373	85.984851
12216.773490	0.999277	0.018554	0.999449	53.187886	76.811612	0.000004	-85.158386	-85.158386	-85.158386	0.001140	0.017552	2.830000	0.007197	0.036843	86.041928
12392.750375	0.996935	0.019975	0.997136	52.929304	77.916572	0.000004	-85.229077	-85.229077	-85.229077	0.001089	0.017017	2.830000	0.006994	0.036321	86.098192
12571.262124	0.996650	0.022541	0.996905	52.679523	79.037473	0.000004	-85.297128	-85.297128	-85.297128	0.001029	0.016531	2.830000	0.006797	0.035806	86.153651
12752.345251	0.998599	0.024340	0.998895	52.439560	80.174539	0.000004	-85.362463	-85.362463	-85.362463	0.000979	0.016096	2.830000	0.006606	0.035298	86.208319
12936.036796	1.001442	0.023940	1.001728	52.203715	81.328001	0.000004	-85.426179	-85.426179	-85.426179	0.000953	0.015687	2.830000	0.006420	0.034797	86.262206
13122.374331	1.003184	0.021422	1.003412	51.963308	82.498095	0.000004	-85.489828	-85.489828	-85.489828	0.000948	0.015273	2.830000	0.006239	0.034304	86.315328
13311.395971	1.002579	0.018397	1.002747	51.712780	83.685064	0.000003	-85.554331	-85.554331	-85.554331	0.000947	0.014835	2.830000	0.006063	0.033817	86.367695
13503.140379	1.000087	0.016883	1.000229	51.453886	84.889152	0.000003	-85.619310	-85.619310	-85.619310	0.000932	0.014381	2.830000	0.005892	0.033338	86.419320
13697.646775	0.997609	0.017802	0.997768	51.194751	86.110608	0.000003	-85.683354	-85.683354	-85.683354	0.000894	0.013941	2.830000	0.005726	0.032865	86.470209
13894.954944	0.997076	0.020200	0.997280	50.943899	87.349679	0.000003	-85.745090	-85.745090	-85.745090	0.000844	0.013540	2.830000	0.005565	0.032399	86.520373
14095.105244	0.998900	0.021927	0.999141	50.703380	88.606618	0.000003	-85.804279	-85.804279	-85.804279	0.000802	0.013182	2.830000	0.005408	0.031939	86.569820
14298.138616	1.001569	0.021341	1.001796	50.466752	89.881677	0.000003	-85.862038	-85.862038	-85.862038	0.000782	0.012845	2.830000	0.005256	0.031486	86.618563
14504.096588	1.002826	0.018723	1.003001	50.224193	91.175118	0.000003	-85.919946	-85.919946	-85.919946	0.000781	0.012500	2.830000	0.005108	0.031039	86.666613
14713.021288	1.001595	0.016120	1.001724	49.970836	92.487210	0.000003	-85.978719	-85.978719	-85.978719	0.000780	0.012133	2.830000	0.004964	0.030599	86.713981
14924.955451	0.998986	0.015609	0.999108	49.711270	93.818221	0.000002	-86.037577	-86.037577	-86.037577	0.000760	0.011761	2.830000	0.004824	0.030165	86.760677
15139.942425	0.997389	0.017402	0.997541	49.455849	95.168426	0.000002	-86.094930	-86.094930	-86.094930	0.000721	0.011411	2.830000	0.004688	0.029737	86.806707
15358.026185	0.998291	0.019562	0.998483	49.211263	96.538098	0.000002	-86.149844	-86.149844	-86.149844	0.000680	0.011098	2.830000	0.004556	0.029315	86.852081
15579.251340	1.000806	0.019768	1.001001	48.973864	97.927514	0.000002	-86.202946	-86.202946	-86.202946	0.000657	0.010813	2.830000	0.004427	0.028899	86.896807
15803.663140	1.002441	0.017585	1.002595	48.732852	99.336958	0.000002	-86.255848	-86.255848	-86.255848	0.000655	0.010526	2.830000	0.004303	0.028489	86.940899
16031.307485	1.001549	0.014993	1.001661	48.480920	100.766721	0.000002	-86.309570	-86.309570	-86.309570	0.000655	0.010221	2.830000	0.004181	0.028085	86.984364
16262.230941	0.999079	0.014434	0.999183	48.221932	102.217097	0.000002	-86.363496	-86.363496	-86.363496	0.000639	0.009908	2.830000	0.004063	0.027686	87.027212
16496.480741	0.997675	0.016229	0.997807	47.967340	103.688384	0.000002	-86.416011	-86.416011	-86.416011	0.000605	0.009615	2.830000	0.003949	0.027293	87.069451
16734.104799	0.998861	0.018138	0.999026	47.724005	105.180880	0.000002	-86.466235	-86.466235	-86.466235	0.000571	0.009355	2.830000	0.003838	0.026906	87.111087
16975.151720	1.001284	0.017759	1.001441	47.486231	106.694888	0.000002	-86.515019	-86.515019	-86.515019	0.000557	0.009113	2.830000	0.003729	0.026524	87.152130
17219.670809	1.002145	0.015286	1.002262	47.241853	108.230718	0.000002	-86.564014	-86.564014	-86.564014	0.000558	0.008864	2.830000	0.003624	0.026148	87.192590
17467.712080	1.000446	0.013390	1.000536	46.986314	109.788686	0.000002	-86.613774	-86.613774	-86.613774	0.000554	0.008600	2.830000	0.003522	0.025777	87.232476
17719.326270	0.998267	0.014087	0.998367	46.728450	111.369114	0.000001	-86.663097	-86.663097	-86.663097	0.000532	0.008340	2.830000	0.003423	0.025411	87.271795
17974.564843	0.998315	0.016212	0.998447	46.480140	112.972323	0.000001	-86.710484	-86.710484	-86.710484	0.000500	0.008105	2.830000	0.003326	0.025050	87.310554
18233.480009	1.000504	0.016773	1.000645	46.241263	114.598639	0.000001	-86.756026	-86.756026	-86.756026	0.000481	0.007893	2.830000	0.003233	0.024695	87.348761
18496.124725	1.001957	0.014778	1.002066	45.999382	116.248394	0.000001	-86.801317	-86.801317	-86.801317	0.000480	0.007682	2.830000	0.003142	0.024344	87.386424
18762.552716	1.000742	0.012641	1.000822	45.745935	117.921926	0.000001	-86.847383	-86.847383	-86.847383	0.000479	0.007457	2.830000	0.003053	0.023999	87.423554
19032.818477	0.998555	0.013005	0.998640	45.488053	119.619580	0.000001	-86.893303	-86.893303	-86.893303	0.000462	0.007231	2.830000	0.002967	0.023658	87.460156
19306.977289	0.998477	0.015041	0.998590	45.239200	121.341704	0.000001	-86.937482	-86.937482	-86.937482	0.000434	0.007026	2.830000	0.002883	0.023323	87.496236
19585.085230	1.000592	0.015509	1.000713	44.999999	123.088646	0.000001	-86.979916	-86.979916	-86.979916	0.000417	0.006843	2.830000	0.002802	0.022992	87.531803
19867.199185	1.001756	0.013449	1.001846	44.756844	124.860764	0.000001	-87.022224	-87.022224	-87.022224	0.000418	0.006658	2.830000	0.002723	0.022665	87.566865
20000.000000	1.001315	0.012373	1.001392	44.639319	125.694965	0.000001	-87.042215	-87.042215	-87.042215	0.000418	0.006567	2.830000	0.002687	0.022515	87.583027
