Freq (hertz)	Ra (norm)	Xa (norm)	Za (norm)	SPL (dB)	Ze (ohms)	Xd (mm) 	WPhase (deg)	UPhase (deg)	CPhase (deg)	Delay (msec)	Efficiency (%)	Ein (volts)	Pin (watts)	Iin (amps)	ZePhase (deg)

10.000000	0.000117	0.012973	0.012974	60.459741	5.758026	1.790404	156.833026	156.833026	156.833026	6.045014	0.000518	2.830000	1.301164	0.491488	20.694775
10.144045	0.000120	0.013160	0.013161	60.694112	5.771399	1.787505	156.519955	156.519955	156.519955	6.029538	0.000549	2.830000	1.295775	0.490349	20.970410
10.290166	0.000124	0.013350	0.013350	60.928117	5.785167	1.784537	156.203196	156.203196	156.203196	6.013712	0.000582	2.830000	1.290266	0.489182	21.249109
10.438391	0.000127	0.013542	0.013543	61.161750	5.799339	1.781497	155.882729	155.882729	155.882729	5.997532	0.000617	2.830000	1.284636	0.487987	21.530883
10.588751	0.000131	0.013737	0.013738	61.395002	5.813930	1.778384	155.558532	155.558532	155.558532	5.980991	0.000654	2.830000	1.278882	0.486762	21.815739
10.741277	0.000135	0.013935	0.013935	61.627864	5.828952	1.775197	155.230582	155.230582	155.230582	5.964085	0.000693	2.830000	1.273004	0.485508	22.103685
10.896000	0.000139	0.014136	0.014136	61.860328	5.844417	1.771935	154.898861	154.898861	154.898861	5.946809	0.000734	2.830000	1.267000	0.484223	22.394727
11.052951	0.000143	0.014339	0.014340	62.092384	5.860339	1.768595	154.563348	154.563348	154.563348	5.929157	0.000779	2.830000	1.260868	0.482907	22.688872
11.212164	0.000147	0.014546	0.014546	62.324025	5.876732	1.765178	154.224025	154.224025	154.224025	5.911125	0.000825	2.830000	1.254607	0.481560	22.986122
11.373670	0.000151	0.014755	0.014756	62.555240	5.893610	1.761680	153.880874	153.880874	153.880874	5.892707	0.000875	2.830000	1.248215	0.480181	23.286480
11.537502	0.000155	0.014968	0.014968	62.786021	5.910988	1.758102	153.533878	153.533878	153.533878	5.873900	0.000927	2.830000	1.241691	0.478769	23.589948
11.703695	0.000160	0.015183	0.015184	63.016359	5.928882	1.754442	153.183020	153.183020	153.183020	5.854699	0.000983	2.830000	1.235033	0.477324	23.896526
11.872281	0.000165	0.015402	0.015403	63.246243	5.947306	1.750698	152.828286	152.828286	152.828286	5.835098	0.001042	2.830000	1.228241	0.475846	24.206211
12.043295	0.000169	0.015624	0.015625	63.475666	5.966278	1.746869	152.469662	152.469662	152.469662	5.815094	0.001105	2.830000	1.221312	0.474333	24.519002
12.216773	0.000174	0.015849	0.015850	63.704616	5.985814	1.742953	152.107133	152.107133	152.107133	5.794683	0.001172	2.830000	1.214246	0.472784	24.834893
12.392750	0.000179	0.016077	0.016078	63.933084	6.005932	1.738950	151.740689	151.740689	151.740689	5.773861	0.001242	2.830000	1.207042	0.471201	25.153879
12.571262	0.000185	0.016308	0.016309	64.161061	6.026650	1.734858	151.370318	151.370318	151.370318	5.752623	0.001317	2.830000	1.199698	0.469581	25.475951
12.752345	0.000190	0.016543	0.016544	64.388536	6.047985	1.730676	150.996009	150.996009	150.996009	5.730967	0.001397	2.830000	1.192215	0.467924	25.801099
12.936037	0.000195	0.016782	0.016783	64.615500	6.069958	1.726403	150.617756	150.617756	150.617756	5.708888	0.001481	2.830000	1.184590	0.466231	26.129313
13.122374	0.000201	0.017023	0.017024	64.841942	6.092588	1.722036	150.235549	150.235549	150.235549	5.686384	0.001571	2.830000	1.176823	0.464499	26.460578
13.311396	0.000207	0.017268	0.017270	65.067853	6.115896	1.717575	149.849382	149.849382	149.849382	5.663452	0.001666	2.830000	1.168913	0.462729	26.794880
13.503140	0.000213	0.017517	0.017518	65.293221	6.139903	1.713020	149.459251	149.459251	149.459251	5.640089	0.001767	2.830000	1.160861	0.460919	27.132201
13.697647	0.000219	0.017769	0.017771	65.518038	6.164631	1.708367	149.065151	149.065151	149.065151	5.616292	0.001874	2.830000	1.152665	0.459070	27.472522
13.894955	0.000226	0.018025	0.018027	65.742291	6.190103	1.703617	148.667081	148.667081	148.667081	5.592059	0.001988	2.830000	1.144325	0.457181	27.815821
14.095105	0.000232	0.018285	0.018286	65.965971	6.216342	1.698768	148.265038	148.265038	148.265038	5.567388	0.002109	2.830000	1.135841	0.455252	28.162076
14.298139	0.000239	0.018548	0.018550	66.189067	6.243374	1.693819	147.859023	147.859023	147.859023	5.542279	0.002237	2.830000	1.127212	0.453281	28.511259
14.504097	0.000246	0.018815	0.018817	66.411569	6.271222	1.688769	147.449038	147.449038	147.449038	5.516728	0.002373	2.830000	1.118440	0.451268	28.863342
14.713021	0.000253	0.019086	0.019088	66.633466	6.299914	1.683617	147.035086	147.035086	147.035086	5.490736	0.002517	2.830000	1.109523	0.449212	29.218295
14.924955	0.000260	0.019361	0.019363	66.854748	6.329476	1.678362	146.617171	146.617171	146.617171	5.464302	0.002671	2.830000	1.100462	0.447114	29.576085
15.139942	0.000268	0.019640	0.019642	67.075403	6.359937	1.673002	146.195299	146.195299	146.195299	5.437424	0.002833	2.830000	1.091258	0.444973	29.936676
15.358026	0.000275	0.019923	0.019925	67.295420	6.391326	1.667537	145.769478	145.769478	145.769478	5.410104	0.003006	2.830000	1.081911	0.442788	30.300029
15.579251	0.000283	0.020210	0.020212	67.514790	6.423673	1.661967	145.339717	145.339717	145.339717	5.382342	0.003190	2.830000	1.072422	0.440558	30.666103
15.803663	0.000292	0.020501	0.020503	67.733502	6.457009	1.656289	144.906026	144.906026	144.906026	5.354138	0.003385	2.830000	1.062792	0.438283	31.034854
16.031307	0.000300	0.020796	0.020798	67.951544	6.491368	1.650503	144.468417	144.468417	144.468417	5.325494	0.003593	2.830000	1.053021	0.435964	31.406235
16.262231	0.000309	0.021095	0.021098	68.168906	6.526783	1.644610	144.026904	144.026904	144.026904	5.296410	0.003813	2.830000	1.043112	0.433598	31.780197
16.496481	0.000318	0.021399	0.021401	68.385577	6.563290	1.638606	143.581503	143.581503	143.581503	5.266889	0.004047	2.830000	1.033064	0.431186	32.156687
16.734105	0.000327	0.021707	0.021710	68.601547	6.600924	1.632493	143.132230	143.132230	143.132230	5.236934	0.004296	2.830000	1.022881	0.428728	32.535648
16.975152	0.000337	0.022020	0.022022	68.816804	6.639725	1.626270	142.679104	142.679104	142.679104	5.206546	0.004560	2.830000	1.012563	0.426222	32.917022
17.219671	0.000346	0.022337	0.022340	69.031339	6.679731	1.619935	142.222144	142.222144	142.222144	5.175730	0.004841	2.830000	1.002112	0.423670	33.300746
17.467712	0.000356	0.022658	0.022661	69.245140	6.720984	1.613489	141.761373	141.761373	141.761373	5.144488	0.005139	2.830000	0.991531	0.421069	33.686753
17.719326	0.000367	0.022985	0.022988	69.458197	6.763526	1.606932	141.296814	141.296814	141.296814	5.112826	0.005457	2.830000	0.980822	0.418421	34.074974
17.974565	0.000377	0.023316	0.023319	69.670500	6.807403	1.600261	140.828492	140.828492	140.828492	5.080746	0.005794	2.830000	0.969986	0.415724	34.465337
18.233480	0.000388	0.023651	0.023655	69.882038	6.852661	1.593479	140.356433	140.356433	140.356433	5.048255	0.006153	2.830000	0.959028	0.412978	34.857763
18.496125	0.000400	0.023992	0.023995	70.092800	6.899347	1.586583	139.880666	139.880666	139.880666	5.015358	0.006534	2.830000	0.947948	0.410184	35.252172
18.762553	0.000411	0.024337	0.024341	70.302778	6.947514	1.579575	139.401220	139.401220	139.401220	4.982061	0.006940	2.830000	0.936752	0.407340	35.648480
19.032818	0.000423	0.024688	0.024691	70.511960	6.997213	1.572453	138.918127	138.918127	138.918127	4.948369	0.007371	2.830000	0.925441	0.404447	36.046598
19.306977	0.000435	0.025043	0.025047	70.720336	7.048499	1.565219	138.431420	138.431420	138.431420	4.914290	0.007830	2.830000	0.914019	0.401504	36.446431
19.585085	0.000448	0.025404	0.025408	70.927897	7.101431	1.557872	137.941133	137.941133	137.941133	4.879831	0.008318	2.830000	0.902489	0.398511	36.847884
19.867199	0.000461	0.025770	0.025774	71.134634	7.156068	1.550412	137.447302	137.447302	137.447302	4.845000	0.008838	2.830000	0.890856	0.395469	37.250852
20.153377	0.000474	0.026141	0.026145	71.340536	7.212473	1.542840	136.949966	136.949966	136.949966	4.809806	0.009391	2.830000	0.879124	0.392376	37.655231
20.443677	0.000488	0.026517	0.026521	71.545593	7.270711	1.535156	136.449162	136.449162	136.449162	4.774255	0.009979	2.830000	0.867295	0.389233	38.060908
20.738158	0.000502	0.026899	0.026903	71.749798	7.330852	1.527360	135.944932	135.944932	135.944932	4.738359	0.010605	2.830000	0.855376	0.386040	38.467766
21.036882	0.000517	0.027286	0.027291	71.953140	7.392967	1.519452	135.437317	135.437317	135.437317	4.702126	0.011272	2.830000	0.843370	0.382796	38.875684
21.339908	0.000532	0.027679	0.027684	72.155612	7.457132	1.511435	134.926361	134.926361	134.926361	4.665566	0.011981	2.830000	0.831282	0.379502	39.284535
21.647300	0.000547	0.028077	0.028083	72.357203	7.523427	1.503307	134.412108	134.412108	134.412108	4.628690	0.012737	2.830000	0.819117	0.376158	39.694184
21.959119	0.000563	0.028481	0.028487	72.557906	7.591933	1.495070	133.894604	133.894604	133.894604	4.591509	0.013542	2.830000	0.806879	0.372764	40.104493
22.275430	0.000580	0.028891	0.028897	72.757712	7.662739	1.486725	133.373897	133.373897	133.373897	4.554034	0.014399	2.830000	0.794575	0.369320	40.515318
22.596297	0.000596	0.029307	0.029313	72.956613	7.735937	1.478273	132.850034	132.850034	132.850034	4.516276	0.015312	2.830000	0.782210	0.365825	40.926506
22.921786	0.000614	0.029729	0.029736	73.154602	7.811622	1.469715	132.323066	132.323066	132.323066	4.478247	0.016285	2.830000	0.769789	0.362281	41.337899
23.251963	0.000631	0.030157	0.030164	73.351670	7.889896	1.461051	131.793043	131.793043	131.793043	4.439961	0.017321	2.830000	0.757318	0.358687	41.749333
23.586897	0.000650	0.030591	0.030598	73.547811	7.970866	1.452283	131.260017	131.260017	131.260017	4.401429	0.018426	2.830000	0.744803	0.355043	42.160633
23.926655	0.000669	0.031032	0.031039	73.743017	8.054644	1.443413	130.724039	130.724039	130.724039	4.362665	0.019604	2.830000	0.732250	0.351350	42.571620
24.271307	0.000688	0.031478	0.031486	73.937281	8.141349	1.434442	130.185165	130.185165	130.185165	4.323683	0.020859	2.830000	0.719665	0.347608	42.982105
24.620924	0.000708	0.031931	0.031939	74.130597	8.231107	1.425371	129.643448	129.643448	129.643448	4.284495	0.022197	2.830000	0.707055	0.343818	43.391889
24.975577	0.000728	0.032391	0.032399	74.322958	8.324049	1.416201	129.098944	129.098944	129.098944	4.245116	0.023625	2.830000	0.694425	0.339979	43.800767
25.335338	0.000750	0.032857	0.032866	74.514358	8.420316	1.406935	128.551708	128.551708	128.551708	4.205560	0.025147	2.830000	0.681784	0.336092	44.208522
25.700282	0.000771	0.033330	0.033339	74.704791	8.520056	1.397575	128.001797	128.001797	128.001797	4.165842	0.026771	2.830000	0.669137	0.332157	44.614926
26.070482	0.000794	0.033810	0.033819	74.894252	8.623424	1.388121	127.449268	127.449268	127.449268	4.125977	0.028503	2.830000	0.656490	0.328176	45.019741
26.446016	0.000817	0.034296	0.034306	75.082736	8.730588	1.378576	126.894178	126.894178	126.894178	4.085979	0.030352	2.830000	0.643853	0.324148	45.422718
26.826958	0.000840	0.034790	0.034800	75.270237	8.841724	1.368943	126.336587	126.336587	126.336587	4.045863	0.032324	2.830000	0.631230	0.320073	45.823594
27.213388	0.000865	0.035291	0.035301	75.456751	8.957018	1.359222	125.776552	125.776552	125.776552	4.005644	0.034430	2.830000	0.618630	0.315953	46.222093
27.605384	0.000890	0.035798	0.035810	75.642273	9.076669	1.349416	125.214132	125.214132	125.214132	3.965339	0.036678	2.830000	0.606059	0.311788	46.617925
28.003026	0.000916	0.036314	0.036325	75.826799	9.200889	1.339528	124.649385	124.649385	124.649385	3.924961	0.039078	2.830000	0.593525	0.307579	47.010782
28.406397	0.000942	0.036836	0.036848	76.010326	9.329903	1.329559	124.082371	124.082371	124.082371	3.884528	0.041641	2.830000	0.581035	0.303326	47.400343
28.815578	0.000970	0.037366	0.037379	76.192849	9.463951	1.319512	123.513149	123.513149	123.513149	3.844053	0.044379	2.830000	0.568596	0.299029	47.786266
29.230652	0.000998	0.037904	0.037917	76.374366	9.603288	1.309390	122.941777	122.941777	122.941777	3.803554	0.047303	2.830000	0.556216	0.294691	48.168189
29.651706	0.001027	0.038449	0.038463	76.554873	9.748188	1.299194	122.368315	122.368315	122.368315	3.763045	0.050427	2.830000	0.543903	0.290310	48.545732
30.078825	0.001056	0.039003	0.039017	76.734368	9.898944	1.288928	121.792822	121.792822	121.792822	3.722541	0.053764	2.830000	0.531663	0.285889	48.918488
30.512097	0.001087	0.039564	0.039579	76.912848	10.055868	1.278593	121.215354	121.215354	121.215354	3.682059	0.057331	2.830000	0.519505	0.281428	49.286026
30.951609	0.001119	0.040133	0.040149	77.090311	10.219296	1.268193	120.635971	120.635971	120.635971	3.641613	0.061143	2.830000	0.507435	0.276927	49.647890
31.397452	0.001151	0.040710	0.040727	77.266756	10.389587	1.257731	120.054730	120.054730	120.054730	3.601219	0.065217	2.830000	0.495461	0.272388	50.003590
31.849718	0.001184	0.041296	0.041313	77.442180	10.567127	1.247208	119.471688	119.471688	119.471688	3.560892	0.069572	2.830000	0.483591	0.267812	50.352607
32.308498	0.001219	0.041890	0.041908	77.616582	10.752332	1.236628	118.886901	118.886901	118.886901	3.520647	0.074228	2.830000	0.471832	0.263199	50.694383
32.773887	0.001254	0.042493	0.042511	77.789962	10.945649	1.225994	118.300426	118.300426	118.300426	3.480497	0.079205	2.830000	0.460191	0.258550	51.028322
33.245979	0.001291	0.043104	0.043123	77.962318	11.147561	1.215308	117.712317	117.712317	117.712317	3.440459	0.084527	2.830000	0.448675	0.253867	51.353784
33.724872	0.001328	0.043724	0.043744	78.133650	11.358586	1.204574	117.122629	117.122629	117.122629	3.400545	0.090217	2.830000	0.437293	0.249151	51.670081
34.210663	0.001367	0.044353	0.044374	78.303957	11.579287	1.193794	116.531414	116.531414	116.531414	3.360771	0.096301	2.830000	0.426051	0.244402	51.976474
34.703452	0.001406	0.044991	0.045013	78.473239	11.810274	1.182970	115.938727	115.938727	115.938727	3.321149	0.102806	2.830000	0.414955	0.239622	52.272162
35.203338	0.001447	0.045638	0.045661	78.641497	12.052204	1.172107	115.344617	115.344617	115.344617	3.281693	0.109761	2.830000	0.404015	0.234812	52.556281
35.710426	0.001489	0.046294	0.046318	78.808730	12.305794	1.161207	114.749137	114.749137	114.749137	3.242417	0.117197	2.830000	0.393235	0.229973	52.827896
36.224818	0.001532	0.046960	0.046985	78.974940	12.571820	1.150273	114.152334	114.152334	114.152334	3.203332	0.125146	2.830000	0.382623	0.225107	53.085988
36.746619	0.001576	0.047635	0.047661	79.140127	12.851129	1.139308	113.554257	113.554257	113.554257	3.164451	0.133643	2.830000	0.372187	0.220214	53.329451
37.275937	0.001622	0.048320	0.048347	79.304291	13.144642	1.128315	112.954954	112.954954	112.954954	3.125786	0.142724	2.830000	0.361932	0.215297	53.557078
37.812880	0.001669	0.049015	0.049043	79.467435	13.453365	1.117297	112.354470	112.354470	112.354470	3.087349	0.152427	2.830000	0.351864	0.210356	53.767551
38.357556	0.001718	0.049720	0.049749	79.629559	13.778398	1.106257	111.752850	111.752850	111.752850	3.049151	0.162793	2.830000	0.341992	0.205394	53.959423
38.910079	0.001767	0.050435	0.050466	79.790664	14.120942	1.095197	111.150138	111.150138	111.150138	3.011203	0.173862	2.830000	0.332320	0.200412	54.131107
39.470560	0.001819	0.051160	0.051192	79.950753	14.482318	1.084122	110.546374	110.546374	110.546374	2.973514	0.185678	2.830000	0.322855	0.195411	54.280855
40.039115	0.001871	0.051895	0.051929	80.109827	14.863973	1.073034	109.941600	109.941600	109.941600	2.936095	0.198288	2.830000	0.313604	0.190393	54.406740
40.615860	0.001926	0.052641	0.052676	80.267887	15.267496	1.061935	109.335855	109.335855	109.335855	2.898956	0.211736	2.830000	0.304571	0.185361	54.506628
41.200912	0.001982	0.053398	0.053435	80.424936	15.694640	1.050829	108.729176	108.729176	108.729176	2.862104	0.226071	2.830000	0.295763	0.180316	54.578152
41.794392	0.002039	0.054165	0.054204	80.580976	16.147333	1.039719	108.121600	108.121600	108.121600	2.825549	0.241340	2.830000	0.287185	0.175261	54.618682
42.396421	0.002098	0.054944	0.054984	80.736009	16.627704	1.028607	107.513162	107.513162	107.513162	2.789299	0.257594	2.830000	0.278843	0.170198	54.625285
43.007121	0.002159	0.055734	0.055775	80.890037	17.138104	1.017496	106.903895	106.903895	106.903895	2.753361	0.274879	2.830000	0.270742	0.165129	54.594681
43.626619	0.002222	0.056534	0.056578	81.043062	17.681131	1.006390	106.293831	106.293831	106.293831	2.717743	0.293245	2.830000	0.262888	0.160058	54.523195
44.255040	0.002286	0.057347	0.057392	81.195087	18.259657	0.995291	105.683000	105.683000	105.683000	2.682450	0.312737	2.830000	0.255284	0.154986	54.406698
44.892513	0.002352	0.058171	0.058218	81.346114	18.876863	0.984201	105.071432	105.071432	105.071432	2.647489	0.333399	2.830000	0.247937	0.149919	54.240537
45.539168	0.002421	0.059007	0.059056	81.496145	19.536260	0.973123	104.459155	104.459155	104.459155	2.612866	0.355273	2.830000	0.240850	0.144859	54.019452
46.195138	0.002491	0.059854	0.059906	81.645184	20.241733	0.962061	103.846193	103.846193	103.846193	2.578586	0.378393	2.830000	0.234029	0.139810	53.737490
46.860558	0.002563	0.060714	0.060768	81.793232	20.997562	0.951016	103.232572	103.232572	103.232572	2.544653	0.402791	2.830000	0.227477	0.134778	53.387888
47.535562	0.002637	0.061586	0.061643	81.940291	21.808458	0.939991	102.618315	102.618315	102.618315	2.511072	0.428489	2.830000	0.221199	0.129766	52.962948
48.220290	0.002714	0.062471	0.062530	82.086365	22.679577	0.928989	102.003444	102.003444	102.003444	2.477847	0.455502	2.830000	0.215199	0.124782	52.453894
48.914880	0.002792	0.063368	0.063430	82.231456	23.616527	0.918012	101.387979	101.387979	101.387979	2.444980	0.483834	2.830000	0.209480	0.119831	51.850694
49.619476	0.002873	0.064278	0.064342	82.375565	24.625354	0.907063	100.771939	100.771939	100.771939	2.412475	0.513476	2.830000	0.204047	0.114922	51.141874
50.334221	0.002957	0.065201	0.065268	82.518696	25.712477	0.896144	100.155343	100.155343	100.155343	2.380334	0.544406	2.830000	0.198903	0.110063	50.314298
51.059262	0.003042	0.066137	0.066207	82.660850	26.884575	0.885257	99.538206	99.538206	99.538206	2.348559	0.576585	2.830000	0.194051	0.105265	49.352933
51.794747	0.003130	0.067087	0.067160	82.802030	28.148370	0.874404	98.920544	98.920544	98.920544	2.317151	0.609959	2.830000	0.189494	0.100539	48.240599
52.540826	0.003221	0.068050	0.068126	82.942238	29.510279	0.863589	98.302372	98.302372	98.302372	2.286112	0.644454	2.830000	0.185236	0.095899	46.957729
53.297652	0.003315	0.069027	0.069106	83.081477	30.975854	0.852812	97.683701	97.683701	97.683701	2.255443	0.679975	2.830000	0.181280	0.091361	45.482162
54.065379	0.003411	0.070017	0.070100	83.219747	32.548940	0.842076	97.064543	97.064543	97.064543	2.225143	0.716408	2.830000	0.177627	0.086946	43.789030
54.844166	0.003509	0.071022	0.071109	83.357051	34.230432	0.831383	96.444910	96.444910	96.444910	2.195213	0.753616	2.830000	0.174281	0.082675	41.850820
55.634170	0.003611	0.072041	0.072132	83.493390	36.016525	0.820736	95.824811	95.824811	95.824811	2.165652	0.791442	2.830000	0.171244	0.078575	39.637749
56.435554	0.003716	0.073075	0.073169	83.628767	37.896332	0.810135	95.204255	95.204255	95.204255	2.136459	0.829709	2.830000	0.168518	0.074677	37.118633
57.248482	0.003823	0.074123	0.074222	83.763182	39.848870	0.799583	94.583249	94.583249	94.583249	2.107634	0.868221	2.830000	0.166105	0.071018	34.262519
58.073119	0.003934	0.075186	0.075289	83.896638	41.839556	0.789082	93.961801	93.961801	93.961801	2.079175	0.906766	2.830000	0.164007	0.067639	31.041359
58.909635	0.004048	0.076265	0.076372	84.029135	43.816763	0.778633	93.339916	93.339916	93.339916	2.051079	0.945119	2.830000	0.162226	0.064587	27.434004
59.758201	0.004166	0.077358	0.077471	84.160675	45.709543	0.768238	92.717601	92.717601	92.717601	2.023346	0.983044	2.830000	0.160764	0.061913	23.431570
60.618990	0.004286	0.078468	0.078585	84.291258	47.428234	0.757899	92.094860	92.094860	92.094860	1.995972	1.020302	2.830000	0.159622	0.059669	19.043807
61.492178	0.004410	0.079593	0.079715	84.420886	48.870023	0.747618	91.471696	91.471696	91.471696	1.968956	1.056652	2.830000	0.158800	0.057909	14.305331
62.377944	0.004538	0.080734	0.080861	84.549558	49.930767	0.737395	90.848115	90.848115	90.848115	1.942293	1.091860	2.830000	0.158301	0.056678	9.279746
63.276469	0.004670	0.081891	0.082024	84.677277	50.522168	0.727233	90.224119	90.224119	90.224119	1.915982	1.125698	2.830000	0.158125	0.056015	4.059286
64.187937	0.004805	0.083064	0.083203	84.804041	50.590048	0.717132	89.599711	89.599711	89.599711	1.890018	1.157958	2.830000	0.158273	0.055940	-1.241707
65.112534	0.004944	0.084255	0.084400	84.929851	50.127156	0.707094	88.974893	88.974893	88.974893	1.864398	1.188446	2.830000	0.158745	0.056456	-6.499067
66.050449	0.005087	0.085462	0.085613	85.054708	49.175013	0.697121	88.349668	88.349668	88.349668	1.839118	1.216997	2.830000	0.159542	0.057550	-11.593905
67.001875	0.005235	0.086686	0.086844	85.178610	47.813931	0.687213	87.724038	87.724038	87.724038	1.814174	1.243468	2.830000	0.160665	0.059188	-16.426181
67.967006	0.005386	0.087927	0.088092	85.301559	46.145622	0.677373	87.098004	87.098004	87.098004	1.789563	1.267748	2.830000	0.162113	0.061328	-20.923167
68.946038	0.005542	0.089187	0.089359	85.423553	44.275075	0.667600	86.471569	86.471569	86.471569	1.765280	1.289756	2.830000	0.163886	0.063919	-25.041590
69.939174	0.005703	0.090464	0.090643	85.544591	42.296878	0.657896	85.844734	85.844734	85.844734	1.741320	1.309440	2.830000	0.165985	0.066908	-28.764649
70.946615	0.005868	0.091758	0.091946	85.664674	40.287862	0.648263	85.217502	85.217502	85.217502	1.717679	1.326781	2.830000	0.168408	0.070244	-32.096187
71.968567	0.006038	0.093072	0.093267	85.783800	38.305237	0.638701	84.589874	84.589874	84.589874	1.694352	1.341785	2.830000	0.171156	0.073880	-35.054204
73.005241	0.006213	0.094404	0.094608	85.901967	36.388237	0.629211	83.961853	83.961853	83.961853	1.671334	1.354490	2.830000	0.174227	0.077772	-37.665108
74.056847	0.006393	0.095754	0.095967	86.019176	34.561389	0.619794	83.333442	83.333442	83.333442	1.648621	1.364953	2.830000	0.177621	0.081883	-39.959295
75.123601	0.006578	0.097124	0.097346	86.135423	32.838097	0.610451	82.704643	82.704643	82.704643	1.626208	1.373253	2.830000	0.181337	0.086180	-41.968087
76.205721	0.006768	0.098513	0.098745	86.250709	31.223845	0.601183	82.075461	82.075461	82.075461	1.604089	1.379489	2.830000	0.185373	0.090636	-43.721815
77.303429	0.006964	0.099921	0.100164	86.365030	29.718782	0.591990	81.445898	81.445898	81.445898	1.582260	1.383771	2.830000	0.189729	0.095226	-45.248745
78.416948	0.007166	0.101350	0.101603	86.478386	28.319655	0.582874	80.815961	80.815961	80.815961	1.560715	1.386220	2.830000	0.194402	0.099931	-46.574569
79.546508	0.007373	0.102798	0.103062	86.590773	27.021196	0.573835	80.185653	80.185653	80.185653	1.539450	1.386966	2.830000	0.199391	0.104733	-47.722268
80.692338	0.007587	0.104267	0.104543	86.702191	25.817069	0.564873	79.554981	79.554981	79.554981	1.518459	1.386142	2.830000	0.204694	0.109617	-48.712182
81.854673	0.007806	0.105756	0.106044	86.812636	24.700504	0.555990	78.923951	78.923951	78.923951	1.497738	1.383882	2.830000	0.210310	0.114573	-49.562191
83.033751	0.008032	0.107267	0.107567	86.922107	23.664704	0.547185	78.292571	78.292571	78.292571	1.477280	1.380322	2.830000	0.216234	0.119587	-50.287954
84.229813	0.008265	0.108798	0.109112	87.030601	22.703084	0.538460	77.660849	77.660849	77.660849	1.457081	1.375592	2.830000	0.222467	0.124653	-50.903157
85.443104	0.008504	0.110351	0.110679	87.138116	21.809423	0.529815	77.028793	77.028793	77.028793	1.437137	1.369822	2.830000	0.229003	0.129760	-51.419751
86.673872	0.008750	0.111926	0.112268	87.244648	20.977927	0.521251	76.396415	76.396415	76.396415	1.417441	1.363132	2.830000	0.235842	0.134904	-51.848179
87.922369	0.009003	0.113523	0.113879	87.350194	20.203262	0.512767	75.763725	75.763725	75.763725	1.397989	1.355639	2.830000	0.242980	0.140076	-52.197575
89.188849	0.009263	0.115142	0.115514	87.454753	19.480550	0.504364	75.130735	75.130735	75.130735	1.378777	1.347452	2.830000	0.250413	0.145273	-52.475940
90.473572	0.009531	0.116784	0.117172	87.558321	18.805354	0.496044	74.497458	74.497458	74.497458	1.359799	1.338672	2.830000	0.258138	0.150489	-52.690300
91.776802	0.009807	0.118449	0.118854	87.660895	18.173649	0.487805	73.863909	73.863909	73.863909	1.341050	1.329394	2.830000	0.266152	0.155720	-52.846832
93.098803	0.010090	0.120136	0.120559	87.762472	17.581790	0.479649	73.230103	73.230103	73.230103	1.322526	1.319703	2.830000	0.274451	0.160962	-52.950986
94.439848	0.010382	0.121848	0.122289	87.863049	17.026484	0.471576	72.596057	72.596057	72.596057	1.304223	1.309678	2.830000	0.283031	0.166212	-53.007581
95.800210	0.010682	0.123583	0.124044	87.962623	16.504754	0.463585	71.961789	71.961789	71.961789	1.286135	1.299391	2.830000	0.291888	0.171466	-53.020887
97.180167	0.010991	0.125342	0.125823	88.061190	16.013906	0.455678	71.327317	71.327317	71.327317	1.268258	1.288907	2.830000	0.301018	0.176721	-52.994698
98.580001	0.011309	0.127126	0.127628	88.158748	15.551508	0.447854	70.692662	70.692662	70.692662	1.250589	1.278282	2.830000	0.310415	0.181976	-52.932397
100.000000	0.011636	0.128935	0.129459	88.255293	15.115355	0.440114	70.057845	70.057845	70.057845	1.233123	1.267568	2.830000	0.320075	0.187227	-52.837004
101.440453	0.011972	0.130768	0.131315	88.350822	14.703454	0.432458	69.422890	69.422890	69.422890	1.215855	1.256812	2.830000	0.329994	0.192472	-52.711225
102.901655	0.012318	0.132627	0.133198	88.445332	14.313993	0.424886	68.787820	68.787820	68.787820	1.198782	1.246054	2.830000	0.340166	0.197709	-52.557491
104.383905	0.012674	0.134512	0.135108	88.538820	13.945328	0.417398	68.152661	68.152661	68.152661	1.181901	1.235329	2.830000	0.350585	0.202935	-52.377989
105.887506	0.013040	0.136423	0.137044	88.631283	13.595967	0.409995	67.517440	67.517440	67.517440	1.165207	1.224667	2.830000	0.361247	0.208150	-52.174693
107.412766	0.013417	0.138360	0.139009	88.722717	13.264547	0.402675	66.882184	66.882184	66.882184	1.148697	1.214096	2.830000	0.372146	0.213351	-51.949390
108.959997	0.013804	0.140323	0.141001	88.813120	12.949828	0.395440	66.246924	66.246924	66.246924	1.132367	1.203639	2.830000	0.383275	0.218536	-51.703699
110.529514	0.014203	0.142314	0.143021	88.902489	12.650678	0.388290	65.611689	65.611689	65.611689	1.116215	1.193314	2.830000	0.394628	0.223703	-51.439094
112.121640	0.014613	0.144332	0.145070	88.990820	12.366061	0.381224	64.976511	64.976511	64.976511	1.100237	1.183140	2.830000	0.406200	0.228852	-51.156916
113.736699	0.015035	0.146378	0.147148	89.078112	12.095027	0.374243	64.341424	64.341424	64.341424	1.084430	1.173128	2.830000	0.417984	0.233980	-50.858390
115.375023	0.015469	0.148452	0.149255	89.164362	11.836706	0.367346	63.706462	63.706462	63.706462	1.068791	1.163292	2.830000	0.429974	0.239087	-50.544639
117.036946	0.015915	0.150554	0.151393	89.249566	11.590301	0.360534	63.071661	63.071661	63.071661	1.053318	1.153640	2.830000	0.442161	0.244170	-50.216690
118.722808	0.016375	0.152684	0.153560	89.333723	11.355075	0.353806	62.437056	62.437056	62.437056	1.038008	1.144179	2.830000	0.454541	0.249228	-49.875490
120.432955	0.016847	0.154844	0.155758	89.416831	11.130352	0.347162	61.802687	61.802687	61.802687	1.022858	1.134916	2.830000	0.467104	0.254260	-49.521909
122.167735	0.017333	0.157034	0.157987	89.498887	10.915508	0.340603	61.168591	61.168591	61.168591	1.007867	1.125853	2.830000	0.479845	0.259264	-49.156752
123.927504	0.017833	0.159252	0.160248	89.579889	10.709966	0.334128	60.534809	60.534809	60.534809	0.993031	1.116995	2.830000	0.492756	0.264240	-48.780761
125.712621	0.018347	0.161502	0.162540	89.659836	10.513193	0.327737	59.901382	59.901382	59.901382	0.978350	1.108343	2.830000	0.505829	0.269186	-48.394627
127.523453	0.018876	0.163781	0.164865	89.738726	10.324696	0.321430	59.268352	59.268352	59.268352	0.963821	1.099897	2.830000	0.519057	0.274100	-47.998988
129.360368	0.019420	0.166091	0.167223	89.816557	10.144017	0.315207	58.635761	58.635761	58.635761	0.949442	1.091657	2.830000	0.532432	0.278982	-47.594440
131.223743	0.019980	0.168433	0.169614	89.893329	9.970731	0.309067	58.003654	58.003654	58.003654	0.935212	1.083623	2.830000	0.545945	0.283831	-47.181536
133.113960	0.020556	0.170806	0.172038	89.969039	9.804443	0.303011	57.372074	57.372074	57.372074	0.921129	1.075793	2.830000	0.559589	0.288645	-46.760796
135.031404	0.021148	0.173210	0.174497	90.043688	9.644787	0.297038	56.741067	56.741067	56.741067	0.907192	1.068165	2.830000	0.573357	0.293423	-46.332703
136.976468	0.021757	0.175647	0.176990	90.117275	9.491419	0.291148	56.110679	56.110679	56.110679	0.893400	1.060736	2.830000	0.587238	0.298164	-45.897710
138.949549	0.022384	0.178117	0.179518	90.189799	9.344020	0.285341	55.480957	55.480957	55.480957	0.879751	1.053504	2.830000	0.601227	0.302867	-45.456242
140.951052	0.023028	0.180620	0.182082	90.261260	9.202293	0.279616	54.851946	54.851946	54.851946	0.866244	1.046465	2.830000	0.615313	0.307532	-45.008700
142.981386	0.023691	0.183155	0.184681	90.331658	9.065959	0.273973	54.223696	54.223696	54.223696	0.852878	1.039615	2.830000	0.629488	0.312157	-44.555460
145.040966	0.024373	0.185725	0.187317	90.400993	8.934757	0.268412	53.596254	53.596254	53.596254	0.839654	1.032951	2.830000	0.643745	0.316741	-44.096876
147.130213	0.025074	0.188328	0.189990	90.469266	8.808443	0.262933	52.969668	52.969668	52.969668	0.826568	1.026469	2.830000	0.658074	0.321283	-43.633283
149.249555	0.025796	0.190966	0.192701	90.536478	8.686789	0.257535	52.343986	52.343986	52.343986	0.813622	1.020166	2.830000	0.672468	0.325782	-43.164997
151.399424	0.026537	0.193639	0.195449	90.602629	8.569578	0.252218	51.719257	51.719257	51.719257	0.800815	1.014036	2.830000	0.686917	0.330238	-42.692317
153.580262	0.027300	0.196347	0.198236	90.667720	8.456611	0.246982	51.095530	51.095530	51.095530	0.788146	1.008075	2.830000	0.701412	0.334649	-42.215527
155.792513	0.028085	0.199090	0.201061	90.731754	8.347695	0.241825	50.472854	50.472854	50.472854	0.775614	1.002280	2.830000	0.715947	0.339016	-41.734897
158.036631	0.028892	0.201869	0.203926	90.794731	8.242654	0.236749	49.851278	49.851278	49.851278	0.763219	0.996646	2.830000	0.730511	0.343336	-41.250680
160.313075	0.029722	0.204684	0.206831	90.856654	8.141319	0.231752	49.230849	49.230849	49.230849	0.750961	0.991169	2.830000	0.745096	0.347610	-40.763120
162.622309	0.030576	0.207536	0.209776	90.917525	8.043530	0.226834	48.611616	48.611616	48.611616	0.738840	0.985844	2.830000	0.759694	0.351836	-40.272447
164.964807	0.031453	0.210424	0.212762	90.977347	7.949139	0.221994	47.993627	47.993627	47.993627	0.726856	0.980667	2.830000	0.774297	0.356013	-39.778882
167.341048	0.032356	0.213350	0.215790	91.036121	7.858003	0.217232	47.376930	47.376930	47.376930	0.715008	0.975634	2.830000	0.788896	0.360142	-39.282633
169.751517	0.033284	0.216314	0.218859	91.093851	7.769990	0.212548	46.761573	46.761573	46.761573	0.703296	0.970740	2.830000	0.803482	0.364222	-38.783901
172.196708	0.034239	0.219315	0.221972	91.150540	7.684972	0.207941	46.147600	46.147600	46.147600	0.691720	0.965983	2.830000	0.818048	0.368251	-38.282874
174.677121	0.035221	0.222355	0.225127	91.206191	7.602830	0.203410	45.535059	45.535059	45.535059	0.680281	0.961357	2.830000	0.832586	0.372230	-37.779736
177.193263	0.036230	0.225433	0.228326	91.260808	7.523450	0.198956	44.923995	44.923995	44.923995	0.668978	0.956858	2.830000	0.847087	0.376157	-37.274659
179.745648	0.037268	0.228550	0.231568	91.314395	7.446725	0.194576	44.314452	44.314452	44.314452	0.657811	0.952483	2.830000	0.861543	0.380033	-36.767810
182.334800	0.038336	0.231706	0.234856	91.366956	7.372553	0.190272	43.706474	43.706474	43.706474	0.646780	0.948227	2.830000	0.875946	0.383856	-36.259346
184.961247	0.039433	0.234902	0.238189	91.418495	7.300837	0.186042	43.100104	43.100104	43.100104	0.635885	0.944088	2.830000	0.890290	0.387627	-35.749418
187.625527	0.040562	0.238138	0.241568	91.469016	7.231484	0.181886	42.495383	42.495383	42.495383	0.625127	0.940060	2.830000	0.904566	0.391344	-35.238172
190.328185	0.041722	0.241414	0.244993	91.518524	7.164407	0.177803	41.892352	41.892352	41.892352	0.614505	0.936141	2.830000	0.918767	0.395008	-34.725745
193.069773	0.042915	0.244731	0.248465	91.567025	7.099523	0.173792	41.291051	41.291051	41.291051	0.604020	0.932328	2.830000	0.932885	0.398618	-34.212270
195.850852	0.044142	0.248088	0.251985	91.614522	7.036752	0.169853	40.691518	40.691518	40.691518	0.593671	0.928615	2.830000	0.946914	0.402174	-33.697872
198.671992	0.045403	0.251487	0.255552	91.661021	6.976019	0.165986	40.093790	40.093790	40.093790	0.583458	0.925001	2.830000	0.960847	0.405675	-33.182672
201.533769	0.046700	0.254927	0.259169	91.706528	6.917252	0.162189	39.497903	39.497903	39.497903	0.573382	0.921482	2.830000	0.974676	0.409122	-32.666785
204.436768	0.048033	0.258408	0.262835	91.751047	6.860382	0.158461	38.903892	38.903892	38.903892	0.563442	0.918054	2.830000	0.988396	0.412513	-32.150320
207.381584	0.049403	0.261932	0.266550	91.794586	6.805344	0.154803	38.311789	38.311789	38.311789	0.553638	0.914714	2.830000	1.001999	0.415850	-31.633382
210.368818	0.050812	0.265498	0.270316	91.837148	6.752075	0.151214	37.721627	37.721627	37.721627	0.543971	0.911460	2.830000	1.015480	0.419130	-31.116071
213.399082	0.052260	0.269106	0.274133	91.878741	6.700514	0.147692	37.133434	37.133434	37.133434	0.534441	0.908289	2.830000	1.028832	0.422356	-30.598481
216.472995	0.053749	0.272757	0.278002	91.919371	6.650606	0.144238	36.547241	36.547241	36.547241	0.525046	0.905197	2.830000	1.042050	0.425525	-30.080704
219.591187	0.055279	0.276450	0.281923	91.959043	6.602295	0.140849	35.963073	35.963073	35.963073	0.515787	0.902181	2.830000	1.055128	0.428639	-29.562825
222.754295	0.056852	0.280187	0.285897	91.997763	6.555529	0.137527	35.380956	35.380956	35.380956	0.506664	0.899239	2.830000	1.068059	0.431697	-29.044925
225.962966	0.058469	0.283967	0.289924	92.035539	6.510259	0.134269	34.800914	34.800914	34.800914	0.497677	0.896369	2.830000	1.080841	0.434699	-28.527082
229.217857	0.060131	0.287790	0.294005	92.072375	6.466435	0.131075	34.222968	34.222968	34.222968	0.488824	0.893566	2.830000	1.093466	0.437645	-28.009369
232.519632	0.061839	0.291657	0.298141	92.108280	6.424013	0.127944	33.647139	33.647139	33.647139	0.480107	0.890830	2.830000	1.105930	0.440535	-27.491854
235.868968	0.063594	0.295568	0.302332	92.143259	6.382948	0.124876	33.073445	33.073445	33.073445	0.471524	0.888157	2.830000	1.118228	0.443369	-26.974604
239.266550	0.065399	0.299523	0.306579	92.177319	6.343198	0.121870	32.501903	32.501903	32.501903	0.463075	0.885545	2.830000	1.130357	0.446147	-26.457680
242.713072	0.067253	0.303521	0.310883	92.210466	6.304723	0.118925	31.932528	31.932528	31.932528	0.454760	0.882992	2.830000	1.142311	0.448870	-25.941140
246.209240	0.069158	0.307564	0.315243	92.242706	6.267484	0.116040	31.365333	31.365333	31.365333	0.446578	0.880494	2.830000	1.154087	0.451537	-25.425036
249.755769	0.071116	0.311651	0.319662	92.274047	6.231443	0.113214	30.800329	30.800329	30.800329	0.438529	0.878051	2.830000	1.165680	0.454148	-24.909421
253.353383	0.073128	0.315782	0.324138	92.304495	6.196566	0.110447	30.237525	30.237525	30.237525	0.430612	0.875659	2.830000	1.177088	0.456705	-24.394341
257.002820	0.075196	0.319957	0.328674	92.334057	6.162818	0.107738	29.676930	29.676930	29.676930	0.422826	0.873317	2.830000	1.188305	0.459206	-23.879840
260.704825	0.077320	0.324176	0.333269	92.362738	6.130165	0.105085	29.118549	29.118549	29.118549	0.415171	0.871022	2.830000	1.199330	0.461651	-23.365959
264.460155	0.079502	0.328439	0.337924	92.390545	6.098577	0.102489	28.562385	28.562385	28.562385	0.407645	0.868773	2.830000	1.210159	0.464043	-22.852733
268.269580	0.081745	0.332746	0.342640	92.417484	6.068023	0.099947	28.008441	28.008441	28.008441	0.400249	0.866567	2.830000	1.220789	0.466379	-22.340199
272.133877	0.084048	0.337098	0.347418	92.443563	6.038474	0.097461	27.456718	27.456718	27.456718	0.392982	0.864402	2.830000	1.231218	0.468661	-21.828385
276.053838	0.086415	0.341493	0.352257	92.468786	6.009901	0.095028	26.907213	26.907213	26.907213	0.385841	0.862277	2.830000	1.241442	0.470890	-21.317321
280.030263	0.088845	0.345932	0.357159	92.493160	5.982279	0.092647	26.359923	26.359923	26.359923	0.378828	0.860189	2.830000	1.251459	0.473064	-20.807032
284.063968	0.091343	0.350414	0.362124	92.516691	5.955580	0.090319	25.814843	25.814843	25.814843	0.371939	0.858136	2.830000	1.261267	0.475185	-20.297539
288.155776	0.093907	0.354940	0.367152	92.539385	5.929780	0.088042	25.271967	25.271967	25.271967	0.365176	0.856118	2.830000	1.270865	0.477252	-19.788863
292.306525	0.096542	0.359508	0.372245	92.561247	5.904855	0.085815	24.731284	24.731284	24.731284	0.358535	0.854131	2.830000	1.280249	0.479267	-19.281019
296.517063	0.099247	0.364120	0.377403	92.582282	5.880783	0.083638	24.192785	24.192785	24.192785	0.352018	0.852175	2.830000	1.289418	0.481228	-18.774022
300.788252	0.102025	0.368773	0.382627	92.602497	5.857540	0.081509	23.656458	23.656458	23.656458	0.345621	0.850247	2.830000	1.298371	0.483138	-18.267884
305.120965	0.104879	0.373469	0.387916	92.621897	5.835107	0.079429	23.122288	23.122288	23.122288	0.339345	0.848346	2.830000	1.307106	0.484995	-17.762613
309.516090	0.107808	0.378206	0.393272	92.640486	5.813461	0.077395	22.590261	22.590261	22.590261	0.333187	0.846470	2.830000	1.315622	0.486801	-17.258216
313.974523	0.110817	0.382985	0.398695	92.658268	5.792585	0.075408	22.060357	22.060357	22.060357	0.327147	0.844618	2.830000	1.323917	0.488556	-16.754697
318.497179	0.113905	0.387803	0.404185	92.675250	5.772458	0.073465	21.532560	21.532560	21.532560	0.321224	0.842787	2.830000	1.331991	0.490259	-16.252058
323.084981	0.117076	0.392662	0.409744	92.691435	5.753063	0.071568	21.006847	21.006847	21.006847	0.315416	0.840977	2.830000	1.339842	0.491912	-15.750299
327.738869	0.120331	0.397560	0.415372	92.706827	5.734382	0.069714	20.483198	20.483198	20.483198	0.309721	0.839186	2.830000	1.347470	0.493514	-15.249417
332.459793	0.123673	0.402497	0.421069	92.721431	5.716399	0.067904	19.961587	19.961587	19.961587	0.304139	0.837411	2.830000	1.354873	0.495067	-14.749408
337.248720	0.127102	0.407471	0.426835	92.735249	5.699098	0.066135	19.441991	19.441991	19.441991	0.298667	0.835653	2.830000	1.362051	0.496570	-14.250266
342.106630	0.130623	0.412483	0.432671	92.748286	5.682462	0.064408	18.924383	18.924383	18.924383	0.293306	0.833908	2.830000	1.369004	0.498024	-13.751980
347.034515	0.134235	0.417531	0.438579	92.760544	5.666479	0.062722	18.408734	18.408734	18.408734	0.288052	0.832176	2.830000	1.375731	0.499428	-13.254542
352.033384	0.137942	0.422614	0.444557	92.772027	5.651132	0.061075	17.895015	17.895015	17.895015	0.282906	0.830455	2.830000	1.382232	0.500785	-12.757939
357.104260	0.141746	0.427732	0.450607	92.782736	5.636409	0.059468	17.383195	17.383195	17.383195	0.277864	0.828744	2.830000	1.388506	0.502093	-12.262158
362.248179	0.145649	0.432882	0.456728	92.792675	5.622297	0.057899	16.873242	16.873242	16.873242	0.272926	0.827041	2.830000	1.394552	0.503353	-11.767181
367.466194	0.149654	0.438065	0.462922	92.801845	5.608783	0.056368	16.365122	16.365122	16.365122	0.268091	0.825345	2.830000	1.400372	0.504566	-11.272993
372.759372	0.153761	0.443278	0.469189	92.810248	5.595855	0.054873	15.858802	15.858802	15.858802	0.263356	0.823654	2.830000	1.405965	0.505731	-10.779574
378.128796	0.157975	0.448521	0.475528	92.817885	5.583502	0.053414	15.354243	15.354243	15.354243	0.258720	0.821967	2.830000	1.411330	0.506850	-10.286905
383.575563	0.162296	0.453792	0.481941	92.824757	5.571713	0.051991	14.851411	14.851411	14.851411	0.254182	0.820282	2.830000	1.416468	0.507923	-9.794962
389.100789	0.166728	0.459089	0.488427	92.830865	5.560477	0.050603	14.350266	14.350266	14.350266	0.249740	0.818599	2.830000	1.421379	0.508949	-9.303725
394.705603	0.171273	0.464412	0.494988	92.836209	5.549785	0.049248	13.850768	13.850768	13.850768	0.245393	0.816915	2.830000	1.426062	0.509930	-8.813167
400.391152	0.175933	0.469758	0.501622	92.840790	5.539628	0.047927	13.352879	13.352879	13.352879	0.241139	0.815229	2.830000	1.430519	0.510865	-8.323265
406.158599	0.180710	0.475125	0.508331	92.844606	5.529995	0.046638	12.856555	12.856555	12.856555	0.236976	0.813540	2.830000	1.434749	0.511754	-7.833990
412.009123	0.185608	0.480512	0.515114	92.847657	5.520880	0.045381	12.361755	12.361755	12.361755	0.232903	0.811847	2.830000	1.438752	0.512599	-7.345316
417.943921	0.190628	0.485917	0.521972	92.849941	5.512273	0.044155	11.868435	11.868435	11.868435	0.228918	0.810148	2.830000	1.442528	0.513400	-6.857214
423.964207	0.195772	0.491338	0.528904	92.851459	5.504167	0.042960	11.376551	11.376551	11.376551	0.225020	0.808441	2.830000	1.446079	0.514156	-6.369653
430.071212	0.201044	0.496772	0.535911	92.852206	5.496554	0.041795	10.886057	10.886057	10.886057	0.221206	0.806725	2.830000	1.449404	0.514868	-5.882604
436.266186	0.206446	0.502217	0.542993	92.852181	5.489429	0.040659	10.396909	10.396909	10.396909	0.217477	0.804999	2.830000	1.452502	0.515536	-5.396036
442.550395	0.211980	0.507671	0.550150	92.851381	5.482783	0.039551	9.909058	9.909058	9.909058	0.213830	0.803262	2.830000	1.455376	0.516161	-4.909915
448.925126	0.217649	0.513131	0.557382	92.849803	5.476612	0.038471	9.422458	9.422458	9.422458	0.210263	0.801512	2.830000	1.458025	0.516743	-4.424210
455.391681	0.223456	0.518594	0.564688	92.847443	5.470910	0.037419	8.937060	8.937060	8.937060	0.206775	0.799747	2.830000	1.460448	0.517281	-3.938887
461.951385	0.229402	0.524059	0.572069	92.844298	5.465671	0.036393	8.452815	8.452815	8.452815	0.203364	0.797966	2.830000	1.462648	0.517777	-3.453912
468.605578	0.235490	0.529520	0.579523	92.840362	5.460891	0.035393	7.969674	7.969674	7.969674	0.200029	0.796168	2.830000	1.464623	0.518230	-2.969251
475.355621	0.241723	0.534977	0.587052	92.835630	5.456564	0.034419	7.487587	7.487587	7.487587	0.196768	0.794351	2.830000	1.466375	0.518641	-2.484869
482.202895	0.248103	0.540425	0.594655	92.830098	5.452687	0.033470	7.006502	7.006502	7.006502	0.193581	0.792514	2.830000	1.467903	0.519010	-2.000730
489.148802	0.254632	0.545861	0.602330	92.823758	5.449256	0.032545	6.526369	6.526369	6.526369	0.190464	0.790655	2.830000	1.469209	0.519337	-1.516799
496.194760	0.261314	0.551281	0.610079	92.816606	5.446268	0.031644	6.047136	6.047136	6.047136	0.187417	0.788772	2.830000	1.470291	0.519622	-1.033041
503.342213	0.268149	0.556682	0.617899	92.808633	5.443718	0.030766	5.568751	5.568751	5.568751	0.184439	0.786865	2.830000	1.471151	0.519865	-0.549420
510.592621	0.275142	0.562061	0.625792	92.799832	5.441605	0.029911	5.091161	5.091161	5.091161	0.181528	0.784932	2.830000	1.471789	0.520067	-0.065899
517.947468	0.282293	0.567412	0.633755	92.790196	5.439926	0.029078	4.614313	4.614313	4.614313	0.178682	0.782971	2.830000	1.472205	0.520228	0.417558
525.408258	0.289606	0.572732	0.641789	92.779716	5.438678	0.028267	4.138154	4.138154	4.138154	0.175900	0.780980	2.830000	1.472400	0.520347	0.900986
532.976517	0.297082	0.578016	0.649892	92.768383	5.437861	0.027477	3.662630	3.662630	3.662630	0.173180	0.778959	2.830000	1.472374	0.520425	1.384422
540.653794	0.304723	0.583260	0.658064	92.756187	5.437471	0.026708	3.187686	3.187686	3.187686	0.170522	0.776905	2.830000	1.472126	0.520463	1.867901
548.441658	0.312532	0.588459	0.666304	92.743119	5.437509	0.025958	2.713270	2.713270	2.713270	0.167924	0.774817	2.830000	1.471658	0.520459	2.351459
556.341702	0.320510	0.593609	0.674610	92.729167	5.437973	0.025229	2.239326	2.239326	2.239326	0.165384	0.772693	2.830000	1.470970	0.520414	2.835131
564.355543	0.328660	0.598703	0.682981	92.714322	5.438863	0.024518	1.765800	1.765800	1.765800	0.162901	0.770532	2.830000	1.470062	0.520329	3.318953
572.484820	0.336983	0.603738	0.691417	92.698570	5.440178	0.023826	1.292637	1.292637	1.292637	0.160474	0.768332	2.830000	1.468934	0.520204	3.802959
580.731195	0.345481	0.608707	0.699915	92.681899	5.441919	0.023153	0.819782	0.819782	0.819782	0.158102	0.766091	2.830000	1.467587	0.520037	4.287184
589.096355	0.354154	0.613605	0.708474	92.664297	5.444085	0.022497	0.347180	0.347180	0.347180	0.155782	0.763808	2.830000	1.466021	0.519830	4.771660
597.582011	0.363006	0.618425	0.717094	92.645750	5.446678	0.021859	-0.125224	-0.125224	-0.125224	0.153515	0.761480	2.830000	1.464236	0.519583	5.256422
606.189899	0.372037	0.623163	0.725771	92.626244	5.449698	0.021238	-0.597486	-0.597486	-0.597486	0.151298	0.759106	2.830000	1.462232	0.519295	5.741501
614.921780	0.381248	0.627811	0.734504	92.605764	5.453147	0.020633	-1.069661	-1.069661	-1.069661	0.149131	0.756685	2.830000	1.460010	0.518966	6.226930
623.779440	0.390640	0.632364	0.743292	92.584295	5.457025	0.020044	-1.541803	-1.541803	-1.541803	0.147012	0.754214	2.830000	1.457570	0.518598	6.712740
632.764690	0.400214	0.636814	0.752132	92.561820	5.461335	0.019472	-2.013969	-2.013969	-2.013969	0.144940	0.751691	2.830000	1.454913	0.518188	7.198961
641.879368	0.409970	0.641154	0.761022	92.538323	5.466080	0.018914	-2.486213	-2.486213	-2.486213	0.142914	0.749115	2.830000	1.452038	0.517739	7.685623
651.125339	0.419910	0.645378	0.769959	92.513787	5.471260	0.018372	-2.958590	-2.958590	-2.958590	0.140932	0.746485	2.830000	1.448946	0.517248	8.172755
660.504493	0.430032	0.649478	0.778942	92.488193	5.476879	0.017844	-3.431156	-3.431156	-3.431156	0.138995	0.743796	2.830000	1.445638	0.516718	8.660383
670.018750	0.440338	0.653448	0.787967	92.461522	5.482940	0.017330	-3.903966	-3.903966	-3.903966	0.137099	0.741049	2.830000	1.442114	0.516146	9.148535
679.670056	0.450827	0.657278	0.797031	92.433756	5.489446	0.016830	-4.377073	-4.377073	-4.377073	0.135245	0.738241	2.830000	1.438373	0.515535	9.637236
689.460384	0.461497	0.660961	0.806132	92.404873	5.496401	0.016344	-4.850533	-4.850533	-4.850533	0.133432	0.735370	2.830000	1.434418	0.514882	10.126512
699.391737	0.472350	0.664490	0.815267	92.374854	5.503808	0.015870	-5.324400	-5.324400	-5.324400	0.131658	0.732434	2.830000	1.430248	0.514189	10.616384
709.466146	0.483382	0.667855	0.824432	92.343675	5.511671	0.015410	-5.798728	-5.798728	-5.798728	0.129922	0.729431	2.830000	1.425863	0.513456	11.106875
719.685673	0.494594	0.671049	0.833624	92.311315	5.519995	0.014962	-6.273572	-6.273572	-6.273572	0.128223	0.726358	2.830000	1.421265	0.512682	11.598006
730.052407	0.505982	0.674063	0.842840	92.277750	5.528783	0.014527	-6.748985	-6.748985	-6.748985	0.126561	0.723214	2.830000	1.416454	0.511867	12.089797
740.568469	0.517546	0.676887	0.852074	92.242956	5.538042	0.014103	-7.225019	-7.225019	-7.225019	0.124934	0.719997	2.830000	1.411430	0.511011	12.582265
751.236010	0.529282	0.679514	0.861324	92.206909	5.547777	0.013691	-7.701730	-7.701730	-7.701730	0.123342	0.716704	2.830000	1.406195	0.510114	13.075427
762.057212	0.541187	0.681933	0.870584	92.169583	5.557992	0.013290	-8.179168	-8.179168	-8.179168	0.121782	0.713333	2.830000	1.400748	0.509177	13.569298
773.034288	0.553259	0.684136	0.879851	92.130950	5.568693	0.012900	-8.657387	-8.657387	-8.657387	0.120256	0.709883	2.830000	1.395091	0.508198	14.063892
784.169484	0.565494	0.686113	0.889120	92.090984	5.579886	0.012521	-9.136439	-9.136439	-9.136439	0.118761	0.706350	2.830000	1.389226	0.507179	14.559221
795.465078	0.577887	0.687855	0.898386	92.049657	5.591579	0.012152	-9.616376	-9.616376	-9.616376	0.117297	0.702733	2.830000	1.383151	0.506118	15.055295
806.923378	0.590433	0.689352	0.907644	92.006938	5.603776	0.011793	-10.097248	-10.097248	-10.097248	0.115862	0.699029	2.830000	1.376870	0.505017	15.552124
818.546731	0.603129	0.690594	0.916888	91.962799	5.616485	0.011444	-10.579106	-10.579106	-10.579106	0.114457	0.695237	2.830000	1.370382	0.503874	16.049714
830.337512	0.615967	0.691571	0.926114	91.917207	5.629713	0.011105	-11.062002	-11.062002	-11.062002	0.113080	0.691353	2.830000	1.363690	0.502690	16.548070
842.298134	0.628942	0.692274	0.935314	91.870132	5.643467	0.010775	-11.545983	-11.545983	-11.545983	0.111731	0.687375	2.830000	1.356793	0.501465	17.047197
854.431043	0.642048	0.692693	0.944483	91.821539	5.657755	0.010455	-12.031101	-12.031101	-12.031101	0.110408	0.683302	2.830000	1.349695	0.500198	17.547096
866.738721	0.655276	0.692817	0.953616	91.771395	5.672585	0.010143	-12.517403	-12.517403	-12.517403	0.109111	0.679131	2.830000	1.342395	0.498891	18.047767
879.223685	0.668619	0.692638	0.962704	91.719664	5.687964	0.009840	-13.004938	-13.004938	-13.004938	0.107839	0.674859	2.830000	1.334897	0.497542	18.549208
891.888489	0.682068	0.692144	0.971741	91.666312	5.703902	0.009545	-13.493752	-13.493752	-13.493752	0.106592	0.670485	2.830000	1.327200	0.496152	19.051415
904.735724	0.695615	0.691327	0.980721	91.611300	5.720407	0.009259	-13.983893	-13.983893	-13.983893	0.105368	0.666006	2.830000	1.319308	0.494720	19.554382
917.768017	0.709249	0.690177	0.989636	91.554591	5.737487	0.008980	-14.475407	-14.475407	-14.475407	0.104167	0.661420	2.830000	1.311223	0.493247	20.058101
930.988035	0.722960	0.688684	0.998477	91.496145	5.755153	0.008710	-14.968337	-14.968337	-14.968337	0.102988	0.656724	2.830000	1.302945	0.491733	20.562564
944.398480	0.736737	0.686839	1.007238	91.435923	5.773413	0.008447	-15.462730	-15.462730	-15.462730	0.101831	0.651917	2.830000	1.294477	0.490178	21.067757
958.002097	0.750567	0.684632	1.015910	91.373881	5.792278	0.008191	-15.958627	-15.958627	-15.958627	0.100694	0.646996	2.830000	1.285823	0.488582	21.573666
971.801667	0.764439	0.682056	1.024484	91.309979	5.811757	0.007942	-16.456072	-16.456072	-16.456072	0.099578	0.641959	2.830000	1.276983	0.486944	22.080277
985.800014	0.778339	0.679102	1.032952	91.244172	5.831860	0.007701	-16.955105	-16.955105	-16.955105	0.098481	0.636804	2.830000	1.267960	0.485265	22.587570
1000.000000	0.792252	0.675760	1.041305	91.176415	5.852600	0.007466	-17.455766	-17.455766	-17.455766	0.097402	0.631530	2.830000	1.258758	0.483546	23.095526
1014.404530	0.806165	0.672025	1.049533	91.106662	5.873985	0.007238	-17.958094	-17.958094	-17.958094	0.096342	0.626133	2.830000	1.249378	0.481785	23.604122
1029.016551	0.820061	0.667888	1.057626	91.034866	5.896027	0.007016	-18.462126	-18.462126	-18.462126	0.095299	0.620613	2.830000	1.239824	0.479984	24.113335
1043.839051	0.833924	0.663342	1.065576	90.960978	5.918738	0.006801	-18.967899	-18.967899	-18.967899	0.094273	0.614967	2.830000	1.230099	0.478142	24.623136
1058.875063	0.847737	0.658382	1.073370	90.884949	5.942130	0.006591	-19.475446	-19.475446	-19.475446	0.093263	0.609195	2.830000	1.220206	0.476260	25.133498
1074.127661	0.861481	0.653002	1.081000	90.806727	5.966213	0.006388	-19.984800	-19.984800	-19.984800	0.092268	0.603293	2.830000	1.210148	0.474338	25.644389
1089.599965	0.875140	0.647197	1.088455	90.726261	5.991002	0.006190	-20.495992	-20.495992	-20.495992	0.091288	0.597262	2.830000	1.199930	0.472375	26.155777
1105.295141	0.888692	0.640963	1.095722	90.643496	6.016507	0.005998	-21.009050	-21.009050	-21.009050	0.090322	0.591099	2.830000	1.189553	0.470373	26.667626
1121.216399	0.902118	0.634296	1.102792	90.558379	6.042741	0.005812	-21.524000	-21.524000	-21.524000	0.089369	0.584804	2.830000	1.179023	0.468330	27.179899
1137.366994	0.915398	0.627196	1.109652	90.470854	6.069719	0.005630	-22.040868	-22.040868	-22.040868	0.088429	0.578375	2.830000	1.168343	0.466249	27.692557
1153.750232	0.928509	0.619659	1.116291	90.380862	6.097453	0.005454	-22.559673	-22.559673	-22.559673	0.087502	0.571812	2.830000	1.157517	0.464128	28.205557
1170.369462	0.941429	0.611686	1.122697	90.288348	6.125956	0.005283	-23.080436	-23.080436	-23.080436	0.086585	0.565114	2.830000	1.146549	0.461969	28.718857
1187.228084	0.954136	0.603277	1.128858	90.193250	6.155242	0.005117	-23.603171	-23.603171	-23.603171	0.085680	0.558282	2.830000	1.135444	0.459771	29.232409
1204.329547	0.966607	0.594436	1.134761	90.095509	6.185326	0.004956	-24.127892	-24.127892	-24.127892	0.084784	0.551314	2.830000	1.124206	0.457534	29.746166
1221.677349	0.978817	0.585164	1.140394	89.995063	6.216222	0.004799	-24.654607	-24.654607	-24.654607	0.083898	0.544212	2.830000	1.112840	0.455260	30.260078
1239.275037	0.990742	0.575467	1.145745	89.891849	6.247945	0.004647	-25.183322	-25.183322	-25.183322	0.083020	0.536975	2.830000	1.101351	0.452949	30.774093
1257.126212	1.002357	0.565351	1.150800	89.785806	6.280509	0.004499	-25.714038	-25.714038	-25.714038	0.082150	0.529604	2.830000	1.089742	0.450600	31.288156
1275.234525	1.013638	0.554823	1.155548	89.676867	6.313929	0.004355	-26.246751	-26.246751	-26.246751	0.081287	0.522101	2.830000	1.078020	0.448215	31.802212
1293.603680	1.024558	0.543893	1.159974	89.564969	6.348222	0.004216	-26.781455	-26.781455	-26.781455	0.080431	0.514466	2.830000	1.066189	0.445794	32.316202
1312.237433	1.035093	0.532572	1.164067	89.450046	6.383402	0.004080	-27.318136	-27.318136	-27.318136	0.079580	0.506703	2.830000	1.054255	0.443337	32.830065
1331.139597	1.045217	0.520872	1.167813	89.332032	6.419486	0.003949	-27.856776	-27.856776	-27.856776	0.078735	0.498812	2.830000	1.042223	0.440845	33.343740
1350.314038	1.054905	0.508807	1.171200	89.210860	6.456490	0.003821	-28.397353	-28.397353	-28.397353	0.077893	0.490796	2.830000	1.030099	0.438319	33.857164
1369.764677	1.064130	0.496395	1.174215	89.086464	6.494430	0.003697	-28.939835	-28.939835	-28.939835	0.077055	0.482660	2.830000	1.017887	0.435758	34.370269
1389.495494	1.072869	0.483653	1.176846	88.958778	6.533323	0.003577	-29.484188	-29.484188	-29.484188	0.076219	0.474405	2.830000	1.005595	0.433164	34.882989
1409.510524	1.081095	0.470601	1.179081	88.827736	6.573186	0.003460	-30.030368	-30.030368	-30.030368	0.075386	0.466036	2.830000	0.993226	0.430537	35.395254
1429.813862	1.088787	0.457262	1.180909	88.693272	6.614036	0.003347	-30.578325	-30.578325	-30.578325	0.074553	0.457558	2.830000	0.980788	0.427878	35.906993
1450.409659	1.095919	0.443661	1.182317	88.555320	6.655891	0.003237	-31.128001	-31.128001	-31.128001	0.073720	0.448975	2.830000	0.968287	0.425187	36.418134
1471.302129	1.102470	0.429822	1.183295	88.413819	6.698768	0.003130	-31.679331	-31.679331	-31.679331	0.072887	0.440294	2.830000	0.955727	0.422466	36.928602
1492.495545	1.108418	0.415776	1.183833	88.268704	6.742685	0.003026	-32.232240	-32.232240	-32.232240	0.072052	0.431519	2.830000	0.943116	0.419714	37.438323
1513.994242	1.113743	0.401552	1.183920	88.119917	6.787660	0.002925	-32.786647	-32.786647	-32.786647	0.071215	0.422658	2.830000	0.930459	0.416933	37.947218
1535.802619	1.118427	0.387184	1.183550	87.967399	6.833712	0.002828	-33.342458	-33.342458	-33.342458	0.070376	0.413717	2.830000	0.917763	0.414123	38.455210
1557.925134	1.122452	0.372705	1.182712	87.811095	6.880859	0.002733	-33.899574	-33.899574	-33.899574	0.069532	0.404706	2.830000	0.905033	0.411286	38.962218
1580.366314	1.125804	0.358154	1.181401	87.650954	6.929120	0.002641	-34.457881	-34.457881	-34.457881	0.068684	0.395631	2.830000	0.892277	0.408421	39.468163
1603.130749	1.128469	0.343567	1.179611	87.486927	6.978514	0.002552	-35.017260	-35.017260	-35.017260	0.067831	0.386502	2.830000	0.879500	0.405530	39.972961
1626.223094	1.130438	0.328987	1.177337	87.318973	7.029060	0.002465	-35.577579	-35.577579	-35.577579	0.066972	0.377328	2.830000	0.866708	0.402614	40.476532
1649.648074	1.131701	0.314455	1.174576	87.147054	7.080776	0.002381	-36.138695	-36.138695	-36.138695	0.066106	0.368119	2.830000	0.853909	0.399674	40.978789
1673.410480	1.132253	0.300015	1.171326	86.971138	7.133683	0.002300	-36.700455	-36.700455	-36.700455	0.065232	0.358886	2.830000	0.841108	0.396710	41.479651
1697.515172	1.132092	0.285714	1.167589	86.791202	7.187800	0.002221	-37.262695	-37.262695	-37.262695	0.064351	0.349640	2.830000	0.828311	0.393723	41.979030
1721.967081	1.131218	0.271596	1.163365	86.607229	7.243147	0.002144	-37.825241	-37.825241	-37.825241	0.063462	0.340393	2.830000	0.815525	0.390714	42.476842
1746.771208	1.129636	0.257711	1.158660	86.419211	7.299744	0.002070	-38.387906	-38.387906	-38.387906	0.062563	0.331156	2.830000	0.802756	0.387685	42.973001
1771.932627	1.127354	0.244107	1.153480	86.227152	7.357610	0.001998	-38.950494	-38.950494	-38.950494	0.061655	0.321942	2.830000	0.790010	0.384636	43.467421
1797.456484	1.124383	0.230834	1.147833	86.031067	7.416766	0.001928	-39.512797	-39.512797	-39.512797	0.060737	0.312764	2.830000	0.777293	0.381568	43.960016
1823.348001	1.120739	0.217940	1.141733	85.830980	7.477232	0.001860	-40.074598	-40.074598	-40.074598	0.059809	0.303635	2.830000	0.764612	0.378482	44.450699
1849.612473	1.116441	0.205476	1.135192	85.626933	7.539028	0.001795	-40.635668	-40.635668	-40.635668	0.058871	0.294568	2.830000	0.751972	0.375380	44.939385
1876.255272	1.111515	0.193491	1.128231	85.418982	7.602175	0.001731	-41.195770	-41.195770	-41.195770	0.057922	0.285579	2.830000	0.739379	0.372262	45.425989
1903.281848	1.105988	0.182032	1.120868	85.207196	7.666692	0.001670	-41.754658	-41.754658	-41.754658	0.056963	0.276679	2.830000	0.726839	0.369129	45.910426
1930.697729	1.099895	0.171149	1.113131	84.991667	7.732600	0.001610	-42.312077	-42.312077	-42.312077	0.055993	0.267883	2.830000	0.714358	0.365983	46.392612
1958.508523	1.093272	0.160885	1.105046	84.772502	7.799920	0.001553	-42.867764	-42.867764	-42.867764	0.055013	0.259205	2.830000	0.701941	0.362824	46.872463
1986.719919	1.086162	0.151285	1.096647	84.549831	7.868673	0.001497	-43.421451	-43.421451	-43.421451	0.054023	0.250660	2.830000	0.689593	0.359654	47.349899
2015.337686	1.078612	0.142390	1.087970	84.323803	7.938878	0.001442	-43.972864	-43.972864	-43.972864	0.053023	0.242259	2.830000	0.677321	0.356474	47.824839
2044.367679	1.070674	0.134237	1.079056	84.094595	8.010557	0.001390	-44.521725	-44.521725	-44.521725	0.052015	0.234017	2.830000	0.665129	0.353284	48.297204
2073.815835	1.062404	0.126862	1.069952	83.862402	8.083729	0.001339	-45.067753	-45.067753	-45.067753	0.050997	0.225947	2.830000	0.653022	0.350086	48.766916
2103.688178	1.053862	0.120294	1.060705	83.627449	8.158416	0.001290	-45.610664	-45.610664	-45.610664	0.049973	0.218061	2.830000	0.641006	0.346881	49.233900
2133.990819	1.045112	0.114559	1.051372	83.389983	8.234638	0.001243	-46.150177	-46.150177	-46.150177	0.048941	0.210370	2.830000	0.629084	0.343670	49.698083
2164.729954	1.036223	0.109677	1.042011	83.150279	8.312415	0.001197	-46.686011	-46.686011	-46.686011	0.047903	0.202886	2.830000	0.617262	0.340455	50.159395
2195.911873	1.027265	0.105662	1.032685	82.908638	8.391769	0.001153	-47.217890	-47.217890	-47.217890	0.046861	0.195620	2.830000	0.605543	0.337235	50.617766
2227.542952	1.018312	0.102524	1.023460	82.665384	8.472719	0.001110	-47.745542	-47.745542	-47.745542	0.045816	0.188580	2.830000	0.593932	0.334013	51.073130
2259.629662	1.009441	0.100264	1.014409	82.420867	8.555287	0.001068	-48.268703	-48.268703	-48.268703	0.044768	0.181776	2.830000	0.582432	0.330790	51.525425
2292.178566	1.000730	0.098875	1.005603	82.175457	8.639493	0.001028	-48.787119	-48.787119	-48.787119	0.043720	0.175213	2.830000	0.571049	0.327566	51.974590
2325.196322	0.992258	0.098345	0.997120	81.929545	8.725357	0.000989	-49.300547	-49.300547	-49.300547	0.042672	0.168900	2.830000	0.559784	0.324342	52.420567
2358.689683	0.984104	0.098652	0.989036	81.683537	8.812902	0.000952	-49.808757	-49.808757	-49.808757	0.041628	0.162839	2.830000	0.548641	0.321120	52.863302
2392.665500	0.976346	0.099766	0.981430	81.437851	8.902146	0.000916	-50.311537	-50.311537	-50.311537	0.040588	0.157036	2.830000	0.537625	0.317901	53.302745
2427.130723	0.969063	0.101650	0.974380	81.192910	8.993111	0.000881	-50.808689	-50.808689	-50.808689	0.039554	0.151493	2.830000	0.526736	0.314685	53.738847
2462.092401	0.962329	0.104257	0.967960	80.949141	9.085819	0.000848	-51.300038	-51.300038	-51.300038	0.038528	0.146210	2.830000	0.515979	0.311474	54.171564
2497.557686	0.956215	0.107530	0.962242	80.706959	9.180290	0.000815	-51.785429	-51.785429	-51.785429	0.037512	0.141187	2.830000	0.505355	0.308269	54.600855
2533.533832	0.950787	0.111407	0.957292	80.466769	9.276545	0.000784	-52.264729	-52.264729	-52.264729	0.036508	0.136421	2.830000	0.494867	0.305070	55.026682
2570.028197	0.946108	0.115814	0.953170	80.228952	9.374607	0.000754	-52.737833	-52.737833	-52.737833	0.035518	0.131911	2.830000	0.484518	0.301879	55.449011
2607.048246	0.942231	0.120671	0.949927	79.993858	9.474495	0.000725	-53.204659	-53.204659	-53.204659	0.034543	0.127650	2.830000	0.474308	0.298697	55.867810
2644.601552	0.939203	0.125892	0.947603	79.761796	9.576233	0.000697	-53.665156	-53.665156	-53.665156	0.033587	0.123632	2.830000	0.464239	0.295523	56.283053
2682.695795	0.937061	0.131380	0.946226	79.533029	9.679842	0.000670	-54.119299	-54.119299	-54.119299	0.032650	0.119851	2.830000	0.454314	0.292360	56.694715
2721.338768	0.935832	0.137037	0.945812	79.307763	9.785345	0.000644	-54.567092	-54.567092	-54.567092	0.031734	0.116297	2.830000	0.444533	0.289208	57.102774
2760.538375	0.935532	0.142757	0.946362	79.086140	9.892765	0.000619	-55.008572	-55.008572	-55.008572	0.030841	0.112959	2.830000	0.434896	0.286068	57.507214
2800.302634	0.936166	0.148431	0.947860	78.868231	10.002123	0.000595	-55.443803	-55.443803	-55.443803	0.029972	0.109828	2.830000	0.425407	0.282940	57.908019
2840.639679	0.937724	0.153950	0.950277	78.654037	10.113445	0.000571	-55.872879	-55.872879	-55.872879	0.029130	0.106890	2.830000	0.416063	0.279826	58.305176
2881.557759	0.940183	0.159201	0.953566	78.443478	10.226752	0.000549	-56.295924	-56.295924	-56.295924	0.028315	0.104133	2.830000	0.406868	0.276725	58.698677
2923.065245	0.943508	0.164074	0.957668	78.236399	10.342071	0.000528	-56.713089	-56.713089	-56.713089	0.027527	0.101543	2.830000	0.397820	0.273640	59.088516
2965.170628	0.947647	0.168462	0.962504	78.032566	10.459425	0.000507	-57.124552	-57.124552	-57.124552	0.026769	0.099104	2.830000	0.388919	0.270569	59.474687
3007.882518	0.952535	0.172263	0.967986	77.831672	10.578839	0.000487	-57.530514	-57.530514	-57.530514	0.026041	0.096803	2.830000	0.380167	0.267515	59.857188
3051.209653	0.958093	0.175381	0.974013	77.633339	10.700339	0.000468	-57.931200	-57.931200	-57.931200	0.025343	0.094623	2.830000	0.371563	0.264478	60.236022
3095.160895	0.964228	0.177729	0.980471	77.437127	10.823951	0.000450	-58.326853	-58.326853	-58.326853	0.024675	0.092550	2.830000	0.363106	0.261457	60.611188
3139.745234	0.970835	0.179233	0.987241	77.242541	10.949702	0.000432	-58.717731	-58.717731	-58.717731	0.024038	0.090567	2.830000	0.354796	0.258455	60.982691
3184.971790	0.977795	0.179830	0.994194	77.049040	11.077619	0.000415	-59.104106	-59.104106	-59.104106	0.023430	0.088660	2.830000	0.346633	0.255470	61.350538
3230.849813	0.984983	0.179473	1.001200	76.856047	11.207731	0.000399	-59.486256	-59.486256	-59.486256	0.022852	0.086814	2.830000	0.338616	0.252504	61.714734
3277.388687	0.992262	0.178134	1.008125	76.662959	11.340064	0.000383	-59.864464	-59.864464	-59.864464	0.022302	0.085016	2.830000	0.330744	0.249558	62.075287
3324.597932	0.999491	0.175801	1.014834	76.469162	11.474649	0.000368	-60.239009	-60.239009	-60.239009	0.021780	0.083250	2.830000	0.323017	0.246631	62.432208
3372.487204	1.006527	0.172483	1.021198	76.274038	11.611516	0.000353	-60.610164	-60.610164	-60.610164	0.021283	0.081506	2.830000	0.315433	0.243724	62.785505
3421.066299	1.013223	0.168210	1.027091	76.076978	11.750694	0.000339	-60.978193	-60.978193	-60.978193	0.020810	0.079772	2.830000	0.307992	0.240837	63.135189
3470.345152	1.019439	0.163036	1.032394	75.877396	11.892214	0.000326	-61.343338	-61.343338	-61.343338	0.020360	0.078039	2.830000	0.300692	0.237971	63.481272
3520.333844	1.025039	0.157034	1.036998	75.674737	12.036108	0.000313	-61.705820	-61.705820	-61.705820	0.019929	0.076298	2.830000	0.293533	0.235126	63.823765
3571.042600	1.029897	0.150298	1.040806	75.468494	12.182408	0.000301	-62.065833	-62.065833	-62.065833	0.019517	0.074542	2.830000	0.286513	0.232302	64.162680
3622.481792	1.033900	0.142946	1.043735	75.258210	12.331147	0.000289	-62.423536	-62.423536	-62.423536	0.019119	0.072766	2.830000	0.279631	0.229500	64.498029
3674.661941	1.036953	0.135111	1.045718	75.043499	12.482358	0.000277	-62.779052	-62.779052	-62.779052	0.018735	0.070968	2.830000	0.272885	0.226720	64.829824
3727.593720	1.038981	0.126946	1.046708	74.824048	12.636075	0.000266	-63.132463	-63.132463	-63.132463	0.018360	0.069146	2.830000	0.266275	0.223962	65.158076
3781.287957	1.039934	0.118614	1.046677	74.599636	12.792333	0.000256	-63.483807	-63.483807	-63.483807	0.017994	0.067301	2.830000	0.259798	0.221226	65.482799
3835.755635	1.039786	0.110290	1.045619	74.370137	12.951165	0.000245	-63.833074	-63.833074	-63.833074	0.017632	0.065435	2.830000	0.253454	0.218513	65.804003
3891.007893	1.038542	0.102155	1.043554	74.135530	13.112608	0.000236	-64.180210	-64.180210	-64.180210	0.017273	0.063552	2.830000	0.247240	0.215823	66.121701
3947.056035	1.036236	0.094389	1.040526	73.895913	13.276698	0.000226	-64.525112	-64.525112	-64.525112	0.016915	0.061658	2.830000	0.241156	0.213155	66.435905
4003.911523	1.032934	0.087169	1.036605	73.651503	13.443470	0.000217	-64.867634	-64.867634	-64.867634	0.016555	0.059760	2.830000	0.235199	0.210511	66.746626
4061.585988	1.028733	0.080661	1.031890	73.402644	13.612961	0.000208	-65.207586	-65.207586	-65.207586	0.016192	0.057866	2.830000	0.229369	0.207890	67.053876
4120.091227	1.023760	0.075016	1.026505	73.149808	13.785209	0.000200	-65.544745	-65.544745	-65.544745	0.015824	0.055986	2.830000	0.223663	0.205292	67.357669
4179.439206	1.018171	0.070363	1.020599	72.893594	13.960250	0.000192	-65.878855	-65.878855	-65.878855	0.015452	0.054130	2.830000	0.218080	0.202718	67.658015
4239.642065	1.012143	0.066803	1.014345	72.634720	14.138122	0.000184	-66.209638	-66.209638	-66.209638	0.015073	0.052308	2.830000	0.212619	0.200168	67.954929
4300.712118	1.005877	0.064405	1.007936	72.374012	14.318864	0.000177	-66.536801	-66.536801	-66.536801	0.014689	0.050530	2.830000	0.207276	0.197641	68.248424
4362.661857	0.999583	0.063202	1.001579	72.112384	14.502512	0.000170	-66.860048	-66.860048	-66.860048	0.014299	0.048806	2.830000	0.202052	0.195139	68.538515
4425.503952	0.993483	0.063188	0.995491	71.850813	14.689107	0.000163	-67.179089	-67.179089	-67.179089	0.013906	0.047145	2.830000	0.196944	0.192660	68.825217
4489.251258	0.987796	0.064311	0.989888	71.590306	14.878686	0.000156	-67.493654	-67.493654	-67.493654	0.013509	0.045555	2.830000	0.191950	0.190205	69.108546
4553.916814	0.982733	0.066479	0.984979	71.331859	15.071290	0.000150	-67.803499	-67.803499	-67.803499	0.013111	0.044043	2.830000	0.187069	0.187774	69.388521
4619.513847	0.978485	0.069559	0.980955	71.076414	15.266957	0.000144	-68.108421	-68.108421	-68.108421	0.012715	0.042614	2.830000	0.182298	0.185368	69.665159
4686.055775	0.975221	0.073377	0.977977	70.824808	15.465728	0.000138	-68.408267	-68.408267	-68.408267	0.012321	0.041271	2.830000	0.177637	0.182985	69.938482
4753.556208	0.973071	0.077725	0.976170	70.577729	15.667643	0.000132	-68.702941	-68.702941	-68.702941	0.011934	0.040014	2.830000	0.173083	0.180627	70.208511
4822.028953	0.972124	0.082370	0.975608	70.335665	15.872743	0.000127	-68.992412	-68.992412	-68.992412	0.011555	0.038843	2.830000	0.168634	0.178293	70.475270
4891.488015	0.972422	0.087057	0.976311	70.098869	16.081070	0.000122	-69.276716	-69.276716	-69.276716	0.011187	0.037755	2.830000	0.164289	0.175983	70.738782
4961.947603	0.973949	0.091525	0.978240	69.867334	16.292666	0.000117	-69.555961	-69.555961	-69.555961	0.010834	0.036744	2.830000	0.160045	0.173698	70.999074
5033.422128	0.976637	0.095515	0.981297	69.640778	16.507574	0.000112	-69.830323	-69.830323	-69.830323	0.010496	0.035803	2.830000	0.155902	0.171436	71.256172
5105.926210	0.980360	0.098784	0.985324	69.418650	16.725838	0.000107	-70.100040	-70.100040	-70.100040	0.010175	0.034924	2.830000	0.151856	0.169199	71.510104
5179.474679	0.984937	0.101118	0.990114	69.200147	16.947501	0.000103	-70.365408	-70.365408	-70.365408	0.009874	0.034097	2.830000	0.147907	0.166986	71.760901
5254.082580	0.990143	0.102343	0.995418	68.984253	17.172610	0.000099	-70.626765	-70.626765	-70.626765	0.009592	0.033312	2.830000	0.144052	0.164797	72.008590
5329.765172	0.995711	0.102339	1.000956	68.769787	17.401210	0.000095	-70.884484	-70.884484	-70.884484	0.009330	0.032557	2.830000	0.140289	0.162632	72.253203
5406.537936	1.001349	0.101044	1.006434	68.555467	17.633349	0.000091	-71.138947	-71.138947	-71.138947	0.009088	0.031823	2.830000	0.136617	0.160491	72.494769
5484.416576	1.006753	0.098471	1.011557	68.339969	17.869075	0.000087	-71.390536	-71.390536	-71.390536	0.008863	0.031098	2.830000	0.133034	0.158374	72.733320
5563.417021	1.011622	0.094699	1.016044	68.122008	18.108437	0.000084	-71.639608	-71.639608	-71.639608	0.008655	0.030374	2.830000	0.129538	0.156281	72.968885
5643.555431	1.015678	0.089883	1.019647	67.900400	18.351486	0.000080	-71.886482	-71.886482	-71.886482	0.008462	0.029643	2.830000	0.126127	0.154211	73.201495
5724.848197	1.018682	0.084244	1.022159	67.674133	18.598271	0.000077	-72.131414	-72.131414	-72.131414	0.008279	0.028901	2.830000	0.122800	0.152165	73.431179
5807.311946	1.020453	0.078059	1.023434	67.442428	18.848845	0.000074	-72.374588	-72.374588	-72.374588	0.008105	0.028143	2.830000	0.119555	0.150142	73.657965
5890.963548	1.020881	0.071650	1.023392	67.204798	19.103261	0.000071	-72.616103	-72.616103	-72.616103	0.007936	0.027369	2.830000	0.116389	0.148142	73.881883
5975.820111	1.019938	0.065361	1.022030	66.961083	19.361573	0.000068	-72.855966	-72.855966	-72.855966	0.007768	0.026581	2.830000	0.113302	0.146166	74.102960
6061.898993	1.017689	0.059542	1.019429	66.711489	19.623834	0.000065	-73.094088	-73.094088	-73.094088	0.007600	0.025781	2.830000	0.110292	0.144212	74.321222
6149.217802	1.014286	0.054519	1.015750	66.456592	19.890100	0.000062	-73.330294	-73.330294	-73.330294	0.007428	0.024976	2.830000	0.107357	0.142282	74.536696
6237.794396	1.009968	0.050574	1.011234	66.197338	20.160427	0.000060	-73.564333	-73.564333	-73.564333	0.007250	0.024173	2.830000	0.104495	0.140374	74.749406
6327.646895	1.005048	0.047923	1.006189	65.935001	20.434870	0.000057	-73.795892	-73.795892	-73.795892	0.007066	0.023380	2.830000	0.101706	0.138489	74.959380
6418.793677	0.999889	0.046688	1.000978	65.671121	20.713488	0.000055	-74.024624	-74.024624	-74.024624	0.006875	0.022606	2.830000	0.098986	0.136626	75.166641
6511.253386	0.994886	0.046892	0.995991	65.407412	20.996336	0.000053	-74.250174	-74.250174	-74.250174	0.006677	0.021860	2.830000	0.096335	0.134785	75.371215
6605.044933	0.990432	0.048444	0.991616	65.145630	21.283473	0.000050	-74.472205	-74.472205	-74.472205	0.006474	0.021148	2.830000	0.093752	0.132967	75.573127
6700.187504	0.986887	0.051145	0.988211	64.887429	21.574958	0.000048	-74.690434	-74.690434	-74.690434	0.006269	0.020478	2.830000	0.091235	0.131171	75.772404
6796.700558	0.984544	0.054694	0.986062	64.634204	21.870850	0.000046	-74.904652	-74.904652	-74.904652	0.006063	0.019851	2.830000	0.088781	0.129396	75.969071
6894.603838	0.983604	0.058709	0.985354	64.386936	22.171209	0.000044	-75.114750	-75.114750	-75.114750	0.005860	0.019272	2.830000	0.086391	0.127643	76.163156
6993.917368	0.984148	0.062761	0.986147	64.146068	22.476095	0.000043	-75.320736	-75.320736	-75.320736	0.005664	0.018737	2.830000	0.084062	0.125912	76.354686
7094.661463	0.986126	0.066402	0.988359	63.911432	22.785571	0.000041	-75.522734	-75.522734	-75.522734	0.005477	0.018244	2.830000	0.081793	0.124201	76.543690
7196.856730	0.989352	0.069215	0.991770	63.682234	23.099699	0.000039	-75.720985	-75.720985	-75.720985	0.005303	0.017787	2.830000	0.079583	0.122512	76.730197
7300.524071	0.993517	0.070849	0.996040	63.457108	23.418544	0.000038	-75.915824	-75.915824	-75.915824	0.005142	0.017358	2.830000	0.077430	0.120844	76.914236
7405.684692	0.998208	0.071062	1.000734	63.234239	23.742169	0.000036	-76.107660	-76.107660	-76.107660	0.004996	0.016949	2.830000	0.075332	0.119197	77.095838
7512.360102	1.002948	0.069750	1.005370	63.011541	24.070641	0.000035	-76.296938	-76.296938	-76.296938	0.004864	0.016550	2.830000	0.073290	0.117571	77.275031
7620.572122	1.007241	0.066968	1.009465	62.786865	24.404028	0.000033	-76.484093	-76.484093	-76.484093	0.004746	0.016154	2.830000	0.071300	0.115964	77.451846
7730.342884	1.010626	0.062930	1.012583	62.558223	24.742399	0.000032	-76.669515	-76.669515	-76.669515	0.004640	0.015754	2.830000	0.069363	0.114379	77.626311
7841.694843	1.012729	0.057998	1.014388	62.324006	25.085824	0.000030	-76.853505	-76.853505	-76.853505	0.004541	0.015344	2.830000	0.067476	0.112813	77.798455
7954.650775	1.013311	0.052648	1.014677	62.083169	25.434373	0.000029	-77.036241	-77.036241	-77.036241	0.004447	0.014923	2.830000	0.065639	0.111267	77.968306
8069.233784	1.012305	0.047417	1.013415	61.835375	25.788120	0.000028	-77.217759	-77.217759	-77.217759	0.004354	0.014490	2.830000	0.063850	0.109740	78.135889
8185.467307	1.009834	0.042845	1.010743	61.581072	26.147138	0.000027	-77.397950	-77.397950	-77.397950	0.004258	0.014049	2.830000	0.062108	0.108234	78.301233
8303.375120	1.006206	0.039409	1.006978	61.321494	26.511501	0.000026	-77.576570	-77.576570	-77.576570	0.004157	0.013606	2.830000	0.060411	0.106746	78.464360
8422.981339	1.001886	0.037453	1.002586	61.058571	26.881284	0.000025	-77.753270	-77.753270	-77.753270	0.004049	0.013166	2.830000	0.058760	0.105278	78.625297
8544.310429	0.997441	0.037137	0.998132	60.794727	27.256564	0.000024	-77.927643	-77.927643	-77.927643	0.003934	0.012739	2.830000	0.057153	0.103828	78.784068
8667.387209	0.993472	0.038409	0.994214	60.532599	27.637417	0.000023	-78.099284	-78.099284	-78.099284	0.003813	0.012330	2.830000	0.055588	0.102397	78.940696
8792.236851	0.990530	0.040992	0.991378	60.274667	28.023921	0.000022	-78.267840	-78.267840	-78.267840	0.003687	0.011947	2.830000	0.054065	0.100985	79.095206
8918.884894	0.989036	0.044418	0.990033	60.022872	28.416155	0.000021	-78.433074	-78.433074	-78.433074	0.003561	0.011592	2.830000	0.052582	0.099591	79.247623
9047.357242	0.989207	0.048081	0.990375	59.778272	28.814198	0.000020	-78.594900	-78.594900	-78.594900	0.003438	0.011266	2.830000	0.051139	0.098215	79.397972
9177.680175	0.991016	0.051327	0.992344	59.540811	29.218131	0.000019	-78.753410	-78.753410	-78.753410	0.003321	0.010968	2.830000	0.049734	0.096858	79.546278
9309.880348	0.994179	0.053548	0.995620	59.309275	29.628035	0.000018	-78.908861	-78.908861	-78.908861	0.003214	0.010692	2.830000	0.048367	0.095518	79.692567
9443.984802	0.998188	0.054285	0.999663	59.081440	30.043996	0.000017	-79.061652	-79.061652	-79.061652	0.003118	0.010433	2.830000	0.047037	0.094195	79.836865
9580.020968	1.002381	0.053313	1.003798	58.854414	30.466096	0.000017	-79.212261	-79.212261	-79.212261	0.003035	0.010182	2.830000	0.045742	0.092890	79.979199
9718.016671	1.006046	0.050693	1.007323	58.625109	30.894423	0.000016	-79.361176	-79.361176	-79.361176	0.002962	0.009932	2.830000	0.044483	0.091602	80.119594
9858.000137	1.008546	0.046776	1.009630	58.390765	31.329066	0.000015	-79.508815	-79.508815	-79.508815	0.002898	0.009676	2.830000	0.043257	0.090331	80.258075
10000.000000	1.009432	0.042156	1.010312	58.149436	31.770113	0.000015	-79.655454	-79.655454	-79.655454	0.002839	0.009413	2.830000	0.042064	0.089077	80.394668
10144.045304	1.008544	0.037576	1.009244	57.900378	32.217655	0.000014	-79.801183	-79.801183	-79.801183	0.002781	0.009141	2.830000	0.040903	0.087840	80.529397
10290.165513	1.006053	0.033793	1.006620	57.644241	32.671786	0.000014	-79.945881	-79.945881	-79.945881	0.002720	0.008862	2.830000	0.039774	0.086619	80.662284
10438.390514	1.002447	0.031431	1.002939	57.383041	33.132599	0.000013	-80.089246	-80.089246	-80.089246	0.002653	0.008582	2.830000	0.038675	0.085414	80.793352
10588.750628	0.998453	0.030845	0.998929	57.119859	33.600188	0.000012	-80.230851	-80.230851	-80.230851	0.002578	0.008307	2.830000	0.037605	0.084226	80.922623
10741.276608	0.994896	0.032037	0.995412	56.858291	34.074649	0.000012	-80.370231	-80.370231	-80.370231	0.002498	0.008044	2.830000	0.036565	0.083053	81.050119
10895.999653	0.992533	0.034631	0.993137	56.601701	34.556079	0.000011	-80.506989	-80.506989	-80.506989	0.002413	0.007798	2.830000	0.035553	0.081896	81.175861
11052.951411	0.991877	0.037937	0.992602	56.352448	35.044576	0.000011	-80.640883	-80.640883	-80.640883	0.002327	0.007573	2.830000	0.034569	0.080754	81.299871
11212.163986	0.993073	0.041089	0.993923	56.111257	35.540239	0.000010	-80.771895	-80.771895	-80.771895	0.002245	0.007368	2.830000	0.033611	0.079628	81.422171
11373.669943	0.995842	0.043232	0.996780	55.876949	36.043169	0.000010	-80.900239	-80.900239	-80.900239	0.002171	0.007180	2.830000	0.032680	0.078517	81.542784
11537.502317	0.999522	0.043734	1.000478	55.646645	36.553468	0.000010	-81.026330	-81.026330	-81.026330	0.002107	0.007003	2.830000	0.031773	0.077421	81.661732
11703.694619	1.003211	0.042347	1.004105	55.416415	37.071242	0.000009	-81.150690	-81.150690	-81.150690	0.002052	0.006831	2.830000	0.030892	0.076339	81.779039
11872.280844	1.005981	0.039293	1.006748	55.182234	37.596594	0.000009	-81.273830	-81.273830	-81.273830	0.002007	0.006657	2.830000	0.030034	0.075273	81.894726
12043.295474	1.007117	0.035236	1.007733	54.940995	38.129635	0.000008	-81.396125	-81.396125	-81.396125	0.001967	0.006477	2.830000	0.029200	0.074220	82.008815
12216.773490	1.006320	0.031124	1.006801	54.691358	38.670474	0.000008	-81.517718	-81.517718	-81.517718	0.001927	0.006290	2.830000	0.028389	0.073182	82.121328
12392.750375	1.003812	0.027947	1.004201	54.434190	39.219221	0.000008	-81.638485	-81.638485	-81.638485	0.001885	0.006098	2.830000	0.027600	0.072158	82.232286
12571.262124	1.000302	0.026462	1.000652	54.172465	39.775990	0.000007	-81.758062	-81.758062	-81.758062	0.001836	0.005906	2.830000	0.026833	0.071148	82.341706
12752.345251	0.996808	0.026955	0.997173	53.910556	40.340895	0.000007	-81.875956	-81.875956	-81.875956	0.001780	0.005719	2.830000	0.026087	0.070152	82.449610
12936.036796	0.994371	0.029135	0.994798	53.653038	40.914051	0.000007	-81.991686	-81.991686	-81.991686	0.001720	0.005544	2.830000	0.025361	0.069169	82.556016
13122.374331	0.993733	0.032189	0.994254	53.403257	41.495576	0.000007	-82.104941	-82.104941	-82.104941	0.001657	0.005384	2.830000	0.024655	0.068200	82.660943
13311.395971	0.995091	0.035010	0.995707	53.162170	42.085586	0.000006	-82.215681	-82.215681	-82.215681	0.001598	0.005239	2.830000	0.023968	0.067244	82.764411
13503.140379	0.998001	0.036539	0.998670	52.927883	42.684204	0.000006	-82.324168	-82.324168	-82.324168	0.001546	0.005106	2.830000	0.023301	0.066301	82.866440
13697.646775	1.001490	0.036123	1.002142	52.696166	43.291550	0.000006	-82.430891	-82.430891	-82.430891	0.001503	0.004980	2.830000	0.022651	0.065371	82.967049
13894.954944	1.004365	0.033758	1.004932	52.461826	43.907749	0.000006	-82.536417	-82.536417	-82.536417	0.001469	0.004854	2.830000	0.022020	0.064453	83.066259
14095.105244	1.005614	0.030130	1.006066	52.220480	44.532927	0.000005	-82.641202	-82.641202	-82.641202	0.001440	0.004723	2.830000	0.021406	0.063548	83.164088
14298.138616	1.004792	0.026400	1.005139	51.970142	45.167214	0.000005	-82.745435	-82.745435	-82.745435	0.001412	0.004586	2.830000	0.020809	0.062656	83.260555
14504.096588	1.002209	0.023797	1.002492	51.712060	45.810738	0.000005	-82.848969	-82.848969	-82.848969	0.001380	0.004446	2.830000	0.020228	0.061776	83.355679
14713.021288	0.998858	0.023157	0.999126	51.450441	46.463633	0.000005	-82.951372	-82.951372	-82.951372	0.001342	0.004306	2.830000	0.019664	0.060908	83.449476
14924.955451	0.996058	0.024562	0.996360	51.191009	47.126032	0.000004	-83.052103	-83.052103	-83.052103	0.001298	0.004173	2.830000	0.019115	0.060052	83.541965
15139.942425	0.994937	0.027278	0.995311	50.938765	47.798070	0.000004	-83.150723	-83.150723	-83.150723	0.001251	0.004050	2.830000	0.018581	0.059207	83.633161
15358.026185	0.995957	0.030007	0.996409	50.695826	48.479884	0.000004	-83.247091	-83.247091	-83.247091	0.001205	0.003940	2.830000	0.018062	0.058375	83.723082
15579.251340	0.998675	0.031418	0.999169	50.460322	49.171614	0.000004	-83.341433	-83.341433	-83.341433	0.001166	0.003839	2.830000	0.017557	0.057554	83.811746
15803.663140	1.001892	0.030726	1.002363	50.227047	49.873399	0.000004	-83.434268	-83.434268	-83.434268	0.001134	0.003743	2.830000	0.017067	0.056744	83.899170
16031.307485	1.004157	0.028080	1.004549	49.989692	50.585384	0.000004	-83.526184	-83.526184	-83.526184	0.001110	0.003646	2.830000	0.016590	0.055945	83.985372
16262.230941	1.004422	0.024539	1.004722	49.743696	51.307716	0.000003	-83.617588	-83.617588	-83.617588	0.001089	0.003544	2.830000	0.016126	0.055157	84.070369
16496.480741	1.002570	0.021617	1.002803	49.488463	52.040541	0.000003	-83.708513	-83.708513	-83.708513	0.001067	0.003438	2.830000	0.015675	0.054381	84.154176
16734.104799	0.999514	0.020565	0.999725	49.227851	52.784011	0.000003	-83.798606	-83.798606	-83.798606	0.001039	0.003331	2.830000	0.015236	0.053615	84.236811
16975.151720	0.996797	0.021723	0.997034	48.968523	53.538278	0.000003	-83.887302	-83.887302	-83.887302	0.001005	0.003228	2.830000	0.014810	0.052859	84.318288
17219.670809	0.995823	0.024301	0.996119	48.716665	54.303496	0.000003	-83.974114	-83.974114	-83.974114	0.000968	0.003134	2.830000	0.014395	0.052115	84.398622
17467.712080	0.997102	0.026738	0.997460	48.474610	55.079821	0.000003	-84.058899	-84.058899	-84.058899	0.000932	0.003050	2.830000	0.013992	0.051380	84.477829
17719.326270	0.999926	0.027516	1.000304	48.239331	55.867411	0.000003	-84.141955	-84.141955	-84.141955	0.000903	0.002972	2.830000	0.013601	0.050656	84.555925
17974.564843	1.002704	0.026015	1.003041	48.003912	56.666427	0.000003	-84.223868	-84.223868	-84.223868	0.000881	0.002896	2.830000	0.013220	0.049941	84.632925
18233.480009	1.003834	0.022918	1.004096	47.761393	57.477034	0.000002	-84.305203	-84.305203	-84.305203	0.000865	0.002818	2.830000	0.012850	0.049237	84.708845
18496.124725	1.002655	0.019872	1.002852	47.508845	58.299396	0.000002	-84.386178	-84.386178	-84.386178	0.000848	0.002735	2.830000	0.012490	0.048543	84.783699
18762.552716	0.999895	0.018533	1.000067	47.249317	59.133683	0.000002	-84.466537	-84.466537	-84.466537	0.000827	0.002651	2.830000	0.012140	0.047858	84.857503
19032.818477	0.997287	0.019530	0.997479	46.990280	59.980066	0.000002	-84.545708	-84.545708	-84.545708	0.000800	0.002570	2.830000	0.011799	0.047182	84.930270
19306.977289	0.996507	0.022007	0.996750	46.739088	60.838717	0.000002	-84.623169	-84.623169	-84.623169	0.000770	0.002495	2.830000	0.011469	0.046516	85.002015
19585.085230	0.998058	0.024118	0.998350	46.498054	61.709812	0.000002	-84.698795	-84.698795	-84.698795	0.000742	0.002428	2.830000	0.011147	0.045860	85.072750
19867.199185	1.000878	0.024226	1.001171	46.262592	62.593529	0.000002	-84.772964	-84.772964	-84.772964	0.000720	0.002367	2.830000	0.010835	0.045212	85.142490
20000.000000	1.002071	0.023449	1.002346	46.152406	63.009550	0.000002	-84.807196	-84.807196	-84.807196	0.000712	0.002338	2.830000	0.010692	0.044914	85.174641
