Freq (hertz)	Ra (norm)	Xa (norm)	Za (norm)	SPL (dB)	Ze (ohms)	Xd (mm) 	WPhase (deg)	UPhase (deg)	CPhase (deg)	Delay (msec)	Efficiency (%)	Ein (volts)	Pin (watts)	Iin (amps)	ZePhase (deg)

10.000000	0.000117	0.012973	0.012974	60.476391	5.746999	1.793839	157.126025	157.126025	157.126025	5.986666	0.000518	2.830000	1.306162	0.492431	20.401776
10.144045	0.000120	0.013160	0.013161	60.711178	5.760071	1.791021	156.815957	156.815957	156.815957	5.972040	0.000549	2.830000	1.300877	0.491313	20.674407
10.290166	0.000124	0.013350	0.013350	60.945608	5.773529	1.788134	156.502201	156.502201	156.502201	5.957079	0.000582	2.830000	1.295473	0.490168	20.950105
10.438391	0.000127	0.013542	0.013543	61.179674	5.787385	1.785177	156.184732	156.184732	156.184732	5.941778	0.000617	2.830000	1.289948	0.488995	21.228880
10.588751	0.000131	0.013737	0.013738	61.413368	5.801650	1.782148	155.863528	155.863528	155.863528	5.926132	0.000654	2.830000	1.284302	0.487792	21.510742
10.741277	0.000135	0.013935	0.013935	61.646680	5.816338	1.779047	155.538566	155.538566	155.538566	5.910135	0.000693	2.830000	1.278532	0.486560	21.795700
10.896000	0.000139	0.014136	0.014136	61.879604	5.831461	1.775871	155.209825	155.209825	155.209825	5.893783	0.000734	2.830000	1.272636	0.485299	22.083764
11.052951	0.000143	0.014339	0.014340	62.112129	5.847032	1.772620	154.877281	154.877281	154.877281	5.877070	0.000779	2.830000	1.266614	0.484006	22.374938
11.212164	0.000147	0.014546	0.014546	62.344246	5.863066	1.769292	154.540916	154.540916	154.540916	5.859992	0.000825	2.830000	1.260462	0.482683	22.669230
11.373670	0.000151	0.014755	0.014756	62.575948	5.879576	1.765885	154.200710	154.200710	154.200710	5.842543	0.000875	2.830000	1.254181	0.481327	22.966644
11.537502	0.000155	0.014968	0.014968	62.807224	5.896576	1.762399	153.856644	153.856644	153.856644	5.824718	0.000927	2.830000	1.247768	0.479940	23.267182
11.703695	0.000160	0.015183	0.015184	63.038066	5.914083	1.758832	153.508699	153.508699	153.508699	5.806514	0.000983	2.830000	1.241222	0.478519	23.570847
11.872281	0.000165	0.015402	0.015403	63.268464	5.932111	1.755182	153.156858	153.156858	153.156858	5.787925	0.001042	2.830000	1.234541	0.477065	23.877639
12.043295	0.000169	0.015624	0.015625	63.498409	5.950676	1.751449	152.801106	152.801106	152.801106	5.768946	0.001105	2.830000	1.227725	0.475576	24.187557
12.216773	0.000174	0.015849	0.015850	63.727891	5.969796	1.747630	152.441428	152.441428	152.441428	5.749574	0.001172	2.830000	1.220771	0.474053	24.500599
12.392750	0.000179	0.016077	0.016078	63.956900	5.989487	1.743725	152.077808	152.077808	152.077808	5.729804	0.001242	2.830000	1.213679	0.472495	24.816760
12.571262	0.000185	0.016308	0.016309	64.185426	6.009768	1.739732	151.710233	151.710233	151.710233	5.709632	0.001317	2.830000	1.206448	0.470900	25.136035
12.752345	0.000190	0.016543	0.016544	64.413460	6.030656	1.735649	151.338693	151.338693	151.338693	5.689054	0.001397	2.830000	1.199076	0.469269	25.458416
12.936037	0.000195	0.016782	0.016783	64.640991	6.052170	1.731477	150.963175	150.963175	150.963175	5.668066	0.001481	2.830000	1.191563	0.467601	25.783894
13.122374	0.000201	0.017023	0.017024	64.868010	6.074331	1.727212	150.583669	150.583669	150.583669	5.646666	0.001571	2.830000	1.183908	0.465895	26.112458
13.311396	0.000207	0.017268	0.017270	65.094505	6.097158	1.722854	150.200167	150.200167	150.200167	5.624849	0.001666	2.830000	1.176109	0.464151	26.444095
13.503140	0.000213	0.017517	0.017518	65.320468	6.120674	1.718401	149.812662	149.812662	149.812662	5.602612	0.001767	2.830000	1.168167	0.462367	26.778790
13.697647	0.000219	0.017769	0.017771	65.545886	6.144898	1.713853	149.421146	149.421146	149.421146	5.579953	0.001874	2.830000	1.160080	0.460545	27.116527
13.894955	0.000226	0.018025	0.018027	65.770750	6.169854	1.709208	149.025616	149.025616	149.025616	5.556869	0.001988	2.830000	1.151848	0.458682	27.457286
14.095105	0.000232	0.018285	0.018286	65.995050	6.195566	1.704465	148.626067	148.626067	148.626067	5.533357	0.002109	2.830000	1.143471	0.456778	27.801047
14.298139	0.000239	0.018548	0.018550	66.218773	6.222058	1.699622	148.222497	148.222497	148.222497	5.509415	0.002237	2.830000	1.134949	0.454833	28.147785
14.504097	0.000246	0.018815	0.018817	66.441911	6.249354	1.694679	147.814905	147.814905	147.814905	5.485042	0.002373	2.830000	1.126281	0.452847	28.497476
14.713021	0.000253	0.019086	0.019088	66.664451	6.277480	1.689634	147.403291	147.403291	147.403291	5.460236	0.002517	2.830000	1.117467	0.450818	28.850090
14.924955	0.000260	0.019361	0.019363	66.886383	6.306465	1.684486	146.987658	146.987658	146.987658	5.434995	0.002671	2.830000	1.108508	0.448746	29.205599
15.139942	0.000268	0.019640	0.019642	67.107696	6.336335	1.679234	146.568007	146.568007	146.568007	5.409318	0.002833	2.830000	1.099403	0.446630	29.563967
15.358026	0.000275	0.019923	0.019925	67.328380	6.367119	1.673877	146.144345	146.144345	146.144345	5.383206	0.003006	2.830000	1.090153	0.444471	29.925161
15.579251	0.000283	0.020210	0.020212	67.548422	6.398848	1.668414	145.716678	145.716678	145.716678	5.356657	0.003190	2.830000	1.080759	0.442267	30.289141
15.803663	0.000292	0.020501	0.020503	67.767813	6.431553	1.662844	145.285013	145.285013	145.285013	5.329671	0.003385	2.830000	1.071222	0.440018	30.655867
16.031307	0.000300	0.020796	0.020798	67.986540	6.465266	1.657167	144.849359	144.849359	144.849359	5.302249	0.003593	2.830000	1.061541	0.437724	31.025293
16.262231	0.000309	0.021095	0.021098	68.204594	6.500022	1.651381	144.409728	144.409728	144.409728	5.274392	0.003813	2.830000	1.051719	0.435383	31.397374
16.496481	0.000318	0.021399	0.021401	68.421962	6.535854	1.645485	143.966131	143.966131	143.966131	5.246101	0.004047	2.830000	1.041756	0.432996	31.772059
16.734105	0.000327	0.021707	0.021710	68.638634	6.572799	1.639479	143.518584	143.518584	143.518584	5.217376	0.004296	2.830000	1.031653	0.430562	32.149295
16.975152	0.000337	0.022020	0.022022	68.854599	6.610896	1.633362	143.067101	143.067101	143.067101	5.188221	0.004560	2.830000	1.021413	0.428081	32.529025
17.219671	0.000346	0.022337	0.022340	69.069846	6.650183	1.627133	142.611700	142.611700	142.611700	5.158637	0.004841	2.830000	1.011037	0.425552	32.911190
17.467712	0.000356	0.022658	0.022661	69.284363	6.690702	1.620792	142.152400	142.152400	142.152400	5.128628	0.005139	2.830000	1.000527	0.422975	33.295726
17.719326	0.000367	0.022985	0.022988	69.498140	6.732495	1.614338	141.689222	141.689222	141.689222	5.098195	0.005457	2.830000	0.989884	0.420349	33.682567
17.974565	0.000377	0.023316	0.023319	69.711165	6.775607	1.607771	141.222187	141.222187	141.222187	5.067343	0.005794	2.830000	0.979111	0.417675	34.071641
18.233480	0.000388	0.023651	0.023655	69.923428	6.820083	1.601090	140.751320	140.751320	140.751320	5.036076	0.006153	2.830000	0.968211	0.414951	34.462876
18.496125	0.000400	0.023992	0.023995	70.134918	6.865973	1.594295	140.276647	140.276647	140.276647	5.004398	0.006534	2.830000	0.957186	0.412178	34.856191
18.762553	0.000411	0.024337	0.024341	70.345625	6.913326	1.587386	139.798194	139.798194	139.798194	4.972314	0.006940	2.830000	0.946039	0.409354	35.251507
19.032818	0.000423	0.024688	0.024691	70.555537	6.962196	1.580362	139.315990	139.315990	139.315990	4.939830	0.007371	2.830000	0.934773	0.406481	35.648735
19.306977	0.000435	0.025043	0.025047	70.764644	7.012636	1.573224	138.830066	138.830066	138.830066	4.906951	0.007830	2.830000	0.923391	0.403557	36.047785
19.585085	0.000448	0.025404	0.025408	70.972935	7.064705	1.565971	138.340454	138.340454	138.340454	4.873682	0.008318	2.830000	0.911897	0.400583	36.448562
19.867199	0.000461	0.025770	0.025774	71.180400	7.118461	1.558603	137.847188	137.847188	137.847188	4.840032	0.008838	2.830000	0.900294	0.397558	36.850967
20.153377	0.000474	0.026141	0.026145	71.387029	7.173969	1.551121	137.350303	137.350303	137.350303	4.806007	0.009391	2.830000	0.888586	0.394482	37.254894
20.443677	0.000488	0.026517	0.026521	71.592812	7.231293	1.543524	136.849835	136.849835	136.849835	4.771615	0.009979	2.830000	0.876777	0.391355	37.660235
20.738158	0.000502	0.026899	0.026903	71.797739	7.290501	1.535813	136.345824	136.345824	136.345824	4.736863	0.010605	2.830000	0.864871	0.388176	38.066874
21.036882	0.000517	0.027286	0.027291	72.001799	7.351667	1.527988	135.838309	135.838309	135.838309	4.701760	0.011272	2.830000	0.852872	0.384947	38.474693
21.339908	0.000532	0.027679	0.027684	72.204983	7.414865	1.520050	135.327331	135.327331	135.327331	4.666315	0.011981	2.830000	0.840786	0.381666	38.883564
21.647300	0.000547	0.028077	0.028083	72.407282	7.480174	1.512000	134.812934	134.812934	134.812934	4.630537	0.012737	2.830000	0.828617	0.378333	39.293357
21.959119	0.000563	0.028481	0.028487	72.608686	7.547678	1.503837	134.295162	134.295162	134.295162	4.594436	0.013542	2.830000	0.816369	0.374950	39.703935
22.275430	0.000580	0.028891	0.028897	72.809187	7.617462	1.495562	133.774061	133.774061	133.774061	4.558023	0.014399	2.830000	0.804049	0.371515	40.115154
22.596297	0.000596	0.029307	0.029313	73.008774	7.689620	1.487177	133.249677	133.249677	133.249677	4.521307	0.015312	2.830000	0.791661	0.368029	40.526863
22.921786	0.000614	0.029729	0.029736	73.207439	7.764247	1.478682	132.722059	132.722059	132.722059	4.484299	0.016285	2.830000	0.779212	0.364491	40.938907
23.251963	0.000631	0.030157	0.030164	73.405174	7.841444	1.470079	132.191257	132.191257	132.191257	4.447012	0.017321	2.830000	0.766706	0.360903	41.351119
23.586897	0.000650	0.030591	0.030598	73.601971	7.921319	1.461367	131.657321	131.657321	131.657321	4.409456	0.018426	2.830000	0.754149	0.357264	41.763329
23.926655	0.000669	0.031032	0.031039	73.797820	8.003983	1.452549	131.120303	131.120303	131.120303	4.371643	0.019604	2.830000	0.741549	0.353574	42.175356
24.271307	0.000688	0.031478	0.031486	73.992715	8.089556	1.443626	130.580257	130.580257	130.580257	4.333587	0.020859	2.830000	0.728910	0.349834	42.587013
24.620924	0.000708	0.031931	0.031939	74.186647	8.178163	1.434598	130.037237	130.037237	130.037237	4.295299	0.022197	2.830000	0.716239	0.346044	42.998101
24.975577	0.000728	0.032391	0.032399	74.379609	8.269935	1.425468	129.491296	129.491296	129.491296	4.256793	0.023625	2.830000	0.703543	0.342203	43.408414
25.335338	0.000750	0.032857	0.032866	74.571594	8.365013	1.416237	128.942493	128.942493	128.942493	4.218082	0.025147	2.830000	0.690829	0.338314	43.817736
25.700282	0.000771	0.033330	0.033339	74.762595	8.463544	1.406906	128.390883	128.390883	128.390883	4.179179	0.026771	2.830000	0.678102	0.334375	44.225839
26.070482	0.000794	0.033810	0.033819	74.952605	8.565686	1.397478	127.836524	127.836524	127.836524	4.140098	0.028503	2.830000	0.665371	0.330388	44.632485
26.446016	0.000817	0.034296	0.034306	75.141617	8.671604	1.387953	127.279474	127.279474	127.279474	4.100854	0.030352	2.830000	0.652641	0.326353	45.037423
26.826958	0.000840	0.034790	0.034800	75.329626	8.781475	1.378335	126.719792	126.719792	126.719792	4.061460	0.032324	2.830000	0.639921	0.322269	45.440389
27.213388	0.000865	0.035291	0.035301	75.516626	8.895486	1.368624	126.157539	126.157539	126.157539	4.021931	0.034430	2.830000	0.627218	0.318139	45.841107
27.605384	0.000890	0.035798	0.035810	75.702611	9.013835	1.358823	125.592773	125.592773	125.592773	3.982282	0.036678	2.830000	0.614538	0.313962	46.239283
28.003026	0.000916	0.036314	0.036325	75.887575	9.136735	1.348933	125.025556	125.025556	125.025556	3.942526	0.039078	2.830000	0.601889	0.309739	46.634611
28.406397	0.000942	0.036836	0.036848	76.071514	9.264409	1.338958	124.455948	124.455948	124.455948	3.902679	0.041641	2.830000	0.589279	0.305470	47.026766
28.815578	0.000970	0.037366	0.037379	76.254422	9.397099	1.328899	123.884011	123.884011	123.884011	3.862756	0.044379	2.830000	0.576715	0.301157	47.415404
29.230652	0.000998	0.037904	0.037917	76.436296	9.535061	1.318759	123.309806	123.309806	123.309806	3.822771	0.047303	2.830000	0.564205	0.296799	47.800161
29.651706	0.001027	0.038449	0.038463	76.617130	9.678568	1.308539	122.733394	122.733394	122.733394	3.782739	0.050427	2.830000	0.551756	0.292399	48.180653
30.078825	0.001056	0.039003	0.039017	76.796920	9.827912	1.298244	122.154837	122.154837	122.154837	3.742676	0.053764	2.830000	0.539376	0.287955	48.556472
30.512097	0.001087	0.039564	0.039579	76.975664	9.983407	1.287874	121.574197	121.574197	121.574197	3.702596	0.057331	2.830000	0.527073	0.283470	48.927183
30.951609	0.001119	0.040133	0.040149	77.153357	10.145389	1.277432	120.991535	120.991535	120.991535	3.662514	0.061143	2.830000	0.514855	0.278944	49.292325
31.397452	0.001151	0.040710	0.040727	77.329997	10.314217	1.266922	120.406913	120.406913	120.406913	3.622445	0.065217	2.830000	0.502729	0.274379	49.651407
31.849718	0.001184	0.041296	0.041313	77.505579	10.490278	1.256345	119.820391	119.820391	119.820391	3.582403	0.069572	2.830000	0.490702	0.269774	50.003903
32.308498	0.001219	0.041890	0.041908	77.680102	10.673987	1.245705	119.232031	119.232031	119.232031	3.542403	0.074228	2.830000	0.478783	0.265131	50.349253
32.773887	0.001254	0.042493	0.042511	77.853564	10.865794	1.235004	118.641892	118.641892	118.641892	3.502460	0.079205	2.830000	0.466980	0.260450	50.686855
33.245979	0.001291	0.043104	0.043123	78.025961	11.066179	1.224246	118.050036	118.050036	118.050036	3.462587	0.084527	2.830000	0.455299	0.255734	51.016064
33.724872	0.001328	0.043724	0.043744	78.197292	11.275665	1.213432	117.456521	117.456521	117.456521	3.422799	0.090217	2.830000	0.443748	0.250983	51.336189
34.210663	0.001367	0.044353	0.044374	78.367555	11.494813	1.202567	116.861407	116.861407	116.861407	3.383109	0.096301	2.830000	0.432336	0.246198	51.646481
34.703452	0.001406	0.044991	0.045013	78.536749	11.724233	1.191652	116.264752	116.264752	116.264752	3.343531	0.102806	2.830000	0.421068	0.241380	51.946136
35.203338	0.001447	0.045638	0.045661	78.704873	11.964586	1.180691	115.666614	115.666614	115.666614	3.304078	0.109761	2.830000	0.409953	0.236531	52.234285
35.710426	0.001489	0.046294	0.046318	78.871925	12.216588	1.169686	115.067050	115.067050	115.067050	3.264763	0.117197	2.830000	0.398999	0.231652	52.509982
36.224818	0.001532	0.046960	0.046985	79.037904	12.481017	1.158642	114.466115	114.466115	114.466115	3.225599	0.125146	2.830000	0.388211	0.226744	52.772206
36.746619	0.001576	0.047635	0.047661	79.202810	12.758720	1.147560	113.863867	113.863867	113.863867	3.186599	0.133643	2.830000	0.377598	0.221809	53.019841
37.275937	0.001622	0.048320	0.048347	79.366643	13.050622	1.136444	113.260358	113.260358	113.260358	3.147774	0.142724	2.830000	0.367165	0.216848	53.251675
37.812880	0.001669	0.049015	0.049043	79.529401	13.357728	1.125296	112.655643	112.655643	112.655643	3.109135	0.152427	2.830000	0.356921	0.211862	53.466378
38.357556	0.001718	0.049720	0.049749	79.691086	13.681142	1.114121	112.049774	112.049774	112.049774	3.070695	0.162793	2.830000	0.346871	0.206854	53.662499
38.910079	0.001767	0.050435	0.050466	79.851697	14.022067	1.102920	111.442804	111.442804	111.442804	3.032464	0.173862	2.830000	0.337023	0.201825	53.838441
39.470560	0.001819	0.051160	0.051192	80.011234	14.381826	1.091697	110.834782	110.834782	110.834782	2.994453	0.185678	2.830000	0.327383	0.196776	53.992448
40.039115	0.001871	0.051895	0.051929	80.169698	14.761869	1.080456	110.225758	110.225758	110.225758	2.956671	0.198288	2.830000	0.317957	0.191710	54.122582
40.615860	0.001926	0.052641	0.052676	80.327089	15.163789	1.069198	109.615782	109.615782	109.615782	2.919129	0.211736	2.830000	0.308751	0.186629	54.226700
41.200912	0.001982	0.053398	0.053435	80.483408	15.589342	1.057927	109.004901	109.004901	109.004901	2.881836	0.226071	2.830000	0.299772	0.181534	54.302428
41.794392	0.002039	0.054165	0.054204	80.638655	16.040461	1.046646	108.393160	108.393160	108.393160	2.844800	0.241340	2.830000	0.291025	0.176429	54.347123
42.396421	0.002098	0.054944	0.054984	80.792832	16.519281	1.035358	107.780605	107.780605	107.780605	2.808030	0.257594	2.830000	0.282516	0.171315	54.357842
43.007121	0.002159	0.055734	0.055775	80.945939	17.028158	1.024066	107.167281	107.167281	107.167281	2.771534	0.274879	2.830000	0.274250	0.166195	54.331295
43.626619	0.002222	0.056534	0.056578	81.097977	17.569698	1.012773	106.553230	106.553230	106.553230	2.735319	0.293245	2.830000	0.266233	0.161073	54.263796
44.255040	0.002286	0.057347	0.057392	81.248947	18.146782	1.001481	105.938495	105.938495	105.938495	2.699392	0.312737	2.830000	0.258470	0.155951	54.151204
44.892513	0.002352	0.058171	0.058218	81.398851	18.762598	0.990195	105.323115	105.323115	105.323115	2.663761	0.333399	2.830000	0.250966	0.150832	53.988854
45.539168	0.002421	0.059007	0.059056	81.547689	19.420671	0.978915	104.707131	104.707131	104.707131	2.628430	0.355273	2.830000	0.243726	0.145721	53.771476
46.195138	0.002491	0.059854	0.059906	81.695464	20.124898	0.967646	104.090581	104.090581	104.090581	2.593406	0.378393	2.830000	0.236754	0.140622	53.493102
46.860558	0.002563	0.060714	0.060768	81.842175	20.879577	0.956390	103.473503	103.473503	103.473503	2.558693	0.402791	2.830000	0.230055	0.135539	53.146956
47.535562	0.002637	0.061586	0.061643	81.987825	21.689437	0.945149	102.855933	102.855933	102.855933	2.524297	0.428489	2.830000	0.223633	0.130478	52.725330
48.220290	0.002714	0.062471	0.062530	82.132415	22.559656	0.933927	102.237906	102.237906	102.237906	2.490222	0.455502	2.830000	0.217493	0.125445	52.219431
48.914880	0.002792	0.063368	0.063430	82.275945	23.495872	0.922726	101.619457	101.619457	101.619457	2.456472	0.483834	2.830000	0.211637	0.120447	51.619216
49.619476	0.002873	0.064278	0.064342	82.418418	24.504162	0.911549	101.000618	101.000618	101.000618	2.423049	0.513476	2.830000	0.206071	0.115491	50.913195
50.334221	0.002957	0.065201	0.065268	82.559834	25.590986	0.900398	100.381423	100.381423	100.381423	2.389958	0.544406	2.830000	0.200796	0.110586	50.088218
51.059262	0.003042	0.066137	0.066207	82.700194	26.763072	0.889276	99.761902	99.761902	99.761902	2.357200	0.576585	2.830000	0.195817	0.105743	49.129237
51.794747	0.003130	0.067087	0.067160	82.839501	28.027200	0.878185	99.142087	99.142087	99.142087	2.324777	0.609959	2.830000	0.191136	0.100973	48.019057
52.540826	0.003221	0.068050	0.068126	82.977755	29.389859	0.867127	98.522006	98.522006	98.522006	2.292692	0.644454	2.830000	0.186757	0.096292	46.738095
53.297652	0.003315	0.069027	0.069106	83.114956	30.856688	0.856105	97.901688	97.901688	97.901688	2.260946	0.679975	2.830000	0.182682	0.091714	45.264174
54.065379	0.003411	0.070017	0.070100	83.251107	32.431634	0.845122	97.281162	97.281162	97.281162	2.229540	0.716408	2.830000	0.178914	0.087260	43.572411
54.844166	0.003509	0.071022	0.071109	83.386208	34.115718	0.834179	96.660455	96.660455	96.660455	2.198474	0.753616	2.830000	0.175455	0.082953	41.635275
55.634170	0.003611	0.072041	0.072132	83.520260	35.905280	0.823279	96.039594	96.039594	96.039594	2.167748	0.791442	2.830000	0.172306	0.078818	39.422965
56.435554	0.003716	0.073075	0.073169	83.653264	37.789603	0.812423	95.418605	95.418605	95.418605	2.137363	0.829709	2.830000	0.169471	0.074888	36.904283
57.248482	0.003823	0.074123	0.074222	83.785220	39.747894	0.801614	94.797513	94.797513	94.797513	2.107318	0.868221	2.830000	0.166950	0.071199	34.048255
58.073119	0.003934	0.075186	0.075289	83.916130	41.745771	0.790855	94.176343	94.176343	94.176343	2.077612	0.906766	2.830000	0.164745	0.067791	30.826817
58.909635	0.004048	0.076265	0.076372	84.045993	43.731805	0.780146	93.555121	93.555121	93.555121	2.048244	0.945119	2.830000	0.162857	0.064713	27.218799
59.758201	0.004166	0.077358	0.077471	84.174811	45.635214	0.769490	92.933870	92.933870	92.933870	2.019213	0.983044	2.830000	0.161288	0.062014	23.215301
60.618990	0.004286	0.078468	0.078585	84.302583	47.366437	0.758888	92.312614	92.312614	92.312614	1.990516	1.020302	2.830000	0.160038	0.059747	18.826052
61.492178	0.004410	0.079593	0.079715	84.429310	48.822648	0.748343	91.691378	91.691378	91.691378	1.962153	1.056652	2.830000	0.159108	0.057965	14.085650
62.377944	0.004538	0.080734	0.080861	84.554992	49.899541	0.737856	91.070184	91.070184	91.070184	1.934121	1.091860	2.830000	0.158499	0.056714	9.057678
63.276469	0.004670	0.081891	0.082024	84.679629	50.508485	0.727430	90.449056	90.449056	90.449056	1.906418	1.125698	2.830000	0.158210	0.056030	3.834350
64.187937	0.004805	0.083064	0.083203	84.803222	50.594819	0.717064	89.828018	89.828018	89.828018	1.879040	1.157958	2.830000	0.158243	0.055935	-1.470014
65.112534	0.004944	0.084255	0.084400	84.925769	50.150721	0.706762	89.207093	89.207093	89.207093	1.851986	1.188446	2.830000	0.158596	0.056430	-6.731266
66.050449	0.005087	0.085462	0.085613	85.047271	49.217135	0.696524	88.586304	88.586304	88.586304	1.825252	1.216997	2.830000	0.159269	0.057500	-11.830540
67.001875	0.005235	0.086686	0.086844	85.167727	47.873880	0.686353	87.965675	87.965675	87.965675	1.798835	1.243468	2.830000	0.160263	0.059114	-16.667819
67.967006	0.005386	0.087927	0.088092	85.287137	46.222305	0.676249	87.345231	87.345231	87.345231	1.772731	1.267748	2.830000	0.161575	0.061226	-21.170393
68.946038	0.005542	0.089187	0.089359	85.405500	44.367191	0.666214	86.724994	86.724994	86.724994	1.746938	1.289756	2.830000	0.163206	0.063786	-25.295015
69.939174	0.005703	0.090464	0.090643	85.522816	42.403048	0.656249	86.104990	86.104990	86.104990	1.721451	1.309440	2.830000	0.165154	0.066740	-29.024905
70.946615	0.005868	0.091758	0.091946	85.639084	40.406732	0.646356	85.485243	85.485243	85.485243	1.696268	1.326781	2.830000	0.167419	0.070038	-32.363929
71.968567	0.006038	0.093072	0.093267	85.754303	38.435541	0.636536	84.865779	84.865779	84.865779	1.671383	1.341785	2.830000	0.169997	0.073630	-35.330110
73.005241	0.006213	0.094404	0.094608	85.868472	36.528833	0.626789	84.246624	84.246624	84.246624	1.646794	1.354490	2.830000	0.172888	0.077473	-37.949879
74.056847	0.006393	0.095754	0.095967	85.981590	34.711270	0.617118	83.627804	83.627804	83.627804	1.622495	1.364953	2.830000	0.176090	0.081530	-40.253657
75.123601	0.006578	0.097124	0.097346	86.093655	32.996386	0.607523	83.009345	83.009345	83.009345	1.598484	1.373253	2.830000	0.179601	0.085767	-42.272789
76.205721	0.006768	0.098513	0.098745	86.204668	31.389790	0.598005	82.391277	82.391277	82.391277	1.574756	1.379489	2.830000	0.183418	0.090157	-44.037631
77.303429	0.006964	0.099921	0.100164	86.314626	29.891740	0.588565	81.773627	81.773627	81.773627	1.551307	1.383771	2.830000	0.187540	0.094675	-45.576473
78.416948	0.007166	0.101350	0.101603	86.423529	28.499078	0.579204	81.156424	81.156424	81.156424	1.528133	1.386220	2.830000	0.191962	0.099301	-46.915032
79.546508	0.007373	0.102798	0.103062	86.531374	27.206616	0.569924	80.539699	80.539699	80.539699	1.505230	1.386966	2.830000	0.196683	0.104019	-48.076314
80.692338	0.007587	0.104267	0.104543	86.638161	26.008090	0.560724	79.923482	79.923482	79.923482	1.482593	1.386142	2.830000	0.201699	0.108812	-49.080683
81.854673	0.007806	0.105756	0.106044	86.743887	24.896786	0.551606	79.307807	79.307807	79.307807	1.460219	1.383882	2.830000	0.207007	0.113669	-49.946046
83.033751	0.008032	0.107267	0.107567	86.848553	23.865955	0.542571	78.692705	78.692705	78.692705	1.438103	1.380322	2.830000	0.212603	0.118579	-50.688088
84.229813	0.008265	0.108798	0.109112	86.952155	22.909055	0.533619	78.078210	78.078210	78.078210	1.416242	1.375592	2.830000	0.218484	0.123532	-51.320518
85.443104	0.008504	0.110351	0.110679	87.054693	22.019898	0.524751	77.464357	77.464357	77.464357	1.394631	1.369822	2.830000	0.224646	0.128520	-51.855315
86.673872	0.008750	0.111926	0.112268	87.156165	21.192720	0.515968	76.851183	76.851183	76.851183	1.373266	1.363132	2.830000	0.231086	0.133536	-52.302947
87.922369	0.009003	0.113523	0.113879	87.256569	20.422210	0.507269	76.238724	76.238724	76.238724	1.352144	1.355639	2.830000	0.237797	0.138575	-52.672574
89.188849	0.009263	0.115142	0.115514	87.355905	19.703511	0.498657	75.627018	75.627018	75.627018	1.331260	1.347452	2.830000	0.244778	0.143629	-52.972224
90.473572	0.009531	0.116784	0.117172	87.454170	19.032203	0.490131	75.016105	75.016105	75.016105	1.310611	1.338672	2.830000	0.252021	0.148695	-53.208947
91.776802	0.009807	0.118449	0.118854	87.551363	18.404275	0.481693	74.406026	74.406026	74.406026	1.290194	1.329394	2.830000	0.259524	0.153769	-53.388948
93.098803	0.010090	0.120136	0.120559	87.647484	17.816095	0.473341	73.796821	73.796821	73.796821	1.270004	1.319703	2.830000	0.267280	0.158845	-53.517704
94.439848	0.010382	0.121848	0.122289	87.742529	17.264379	0.465078	73.188534	73.188534	73.188534	1.250038	1.309678	2.830000	0.275285	0.163921	-53.600058
95.800210	0.010682	0.123583	0.124044	87.836499	16.746160	0.456902	72.581208	72.581208	72.581208	1.230293	1.299391	2.830000	0.283533	0.168994	-53.640306
97.180167	0.010991	0.125342	0.125823	87.929392	16.258751	0.448816	71.974889	71.974889	71.974889	1.210765	1.288907	2.830000	0.292020	0.174060	-53.642271
98.580001	0.011309	0.127126	0.127628	88.021206	15.799726	0.440818	71.369623	71.369623	71.369623	1.191451	1.278282	2.830000	0.300738	0.179117	-53.609358
100.000000	0.011636	0.128935	0.129459	88.111942	15.366887	0.432910	70.765457	70.765457	70.765457	1.172349	1.267568	2.830000	0.309683	0.184162	-53.544616
101.440453	0.011972	0.130768	0.131315	88.201598	14.958243	0.425092	70.162440	70.162440	70.162440	1.153455	1.256812	2.830000	0.318848	0.189193	-53.450776
102.901655	0.012318	0.132627	0.133198	88.290173	14.571987	0.417364	69.560621	69.560621	69.560621	1.134766	1.246054	2.830000	0.328227	0.194208	-53.330292
104.383905	0.012674	0.134512	0.135108	88.377666	14.206479	0.409725	68.960051	68.960051	68.960051	1.116280	1.235329	2.830000	0.337815	0.199205	-53.185379
105.887506	0.013040	0.136423	0.137044	88.464077	13.860227	0.402178	68.360783	68.360783	68.360783	1.097995	1.224667	2.830000	0.347603	0.204181	-53.018036
107.412766	0.013417	0.138360	0.139009	88.549407	13.531874	0.394720	67.762868	67.762868	67.762868	1.079907	1.214096	2.830000	0.357587	0.209136	-52.830074
108.959997	0.013804	0.140323	0.141001	88.633653	13.220179	0.387354	67.166361	67.166361	67.166361	1.062014	1.203639	2.830000	0.367759	0.214067	-52.623137
110.529514	0.014203	0.142314	0.143021	88.716817	12.924013	0.380078	66.571317	66.571317	66.571317	1.044314	1.193314	2.830000	0.378113	0.218972	-52.398722
112.121640	0.014613	0.144332	0.145070	88.798899	12.642339	0.372893	65.977791	65.977791	65.977791	1.026806	1.183140	2.830000	0.388641	0.223851	-52.158196
113.736699	0.015035	0.146378	0.147148	88.879898	12.374211	0.365799	65.385841	65.385841	65.385841	1.009486	1.173128	2.830000	0.399336	0.228701	-51.902806
115.375023	0.015469	0.148452	0.149255	88.959816	12.118759	0.358796	64.795523	64.795523	64.795523	0.992354	1.163292	2.830000	0.410192	0.233522	-51.633699
117.036946	0.015915	0.150554	0.151393	89.038653	11.875184	0.351885	64.206896	64.206896	64.206896	0.975407	1.153640	2.830000	0.421201	0.238312	-51.351926
118.722808	0.016375	0.152684	0.153560	89.116410	11.642753	0.345064	63.620021	63.620021	63.620021	0.958643	1.144179	2.830000	0.432356	0.243070	-51.058454
120.432955	0.016847	0.154844	0.155758	89.193088	11.420788	0.338334	63.034955	63.034955	63.034955	0.942063	1.134916	2.830000	0.443649	0.247794	-50.754177
122.167735	0.017333	0.157034	0.157987	89.268688	11.208665	0.331695	62.451760	62.451760	62.451760	0.925663	1.125853	2.830000	0.455073	0.252483	-50.439920
123.927504	0.017833	0.159252	0.160248	89.343213	11.005808	0.325147	61.870497	61.870497	61.870497	0.909442	1.116995	2.830000	0.466621	0.257137	-50.116449
125.712621	0.018347	0.161502	0.162540	89.416663	10.811683	0.318689	61.291227	61.291227	61.291227	0.893401	1.108343	2.830000	0.478285	0.261754	-49.784472
127.523453	0.018876	0.163781	0.164865	89.489041	10.625797	0.312322	60.714013	60.714013	60.714013	0.877536	1.099897	2.830000	0.490057	0.266333	-49.444649
129.360368	0.019420	0.166091	0.167223	89.560349	10.447692	0.306045	60.138917	60.138917	60.138917	0.861848	1.091657	2.830000	0.501930	0.270873	-49.097596
131.223743	0.019980	0.168433	0.169614	89.630590	10.276942	0.299858	59.566002	59.566002	59.566002	0.846335	1.083623	2.830000	0.513896	0.275374	-48.743885
133.113960	0.020556	0.170806	0.172038	89.699767	10.113153	0.293761	58.995331	58.995331	58.995331	0.830997	1.075793	2.830000	0.525947	0.279834	-48.384053
135.031404	0.021148	0.173210	0.174497	89.767882	9.955956	0.287754	58.426966	58.426966	58.426966	0.815833	1.068165	2.830000	0.538077	0.284252	-48.018602
136.976468	0.021757	0.175647	0.176990	89.834938	9.805008	0.281836	57.860972	57.860972	57.860972	0.800842	1.060736	2.830000	0.550276	0.288628	-47.648003
138.949549	0.022384	0.178117	0.179518	89.900940	9.659991	0.276007	57.297412	57.297412	57.297412	0.786024	1.053504	2.830000	0.562539	0.292961	-47.272698
140.951052	0.023028	0.180620	0.182082	89.965891	9.520604	0.270267	56.736349	56.736349	56.736349	0.771378	1.046465	2.830000	0.574856	0.297250	-46.893103
142.981386	0.023691	0.183155	0.184681	90.029796	9.386569	0.264615	56.177846	56.177846	56.177846	0.756904	1.039615	2.830000	0.587221	0.301495	-46.509610
145.040966	0.024373	0.185725	0.187317	90.092657	9.257624	0.259051	55.621967	55.621967	55.621967	0.742601	1.032951	2.830000	0.599626	0.305694	-46.122589
147.130213	0.025074	0.188328	0.189990	90.154481	9.133525	0.253575	55.068774	55.068774	55.068774	0.728468	1.026469	2.830000	0.612063	0.309848	-45.732389
149.249555	0.025796	0.190966	0.192701	90.215272	9.014041	0.248185	54.518329	54.518329	54.518329	0.714507	1.020166	2.830000	0.624527	0.313955	-45.339340
151.399424	0.026537	0.193639	0.195449	90.275035	8.898958	0.242883	53.970695	53.970695	53.970695	0.700715	1.014036	2.830000	0.637008	0.318015	-44.943755
153.580262	0.027300	0.196347	0.198236	90.333775	8.788072	0.237666	53.425933	53.425933	53.425933	0.687094	1.008075	2.830000	0.649500	0.322027	-44.545930
155.792513	0.028085	0.199090	0.201061	90.391498	8.681192	0.232536	52.884105	52.884105	52.884105	0.673643	1.002280	2.830000	0.661996	0.325992	-44.146147
158.036631	0.028892	0.201869	0.203926	90.448210	8.578140	0.227490	52.345270	52.345270	52.345270	0.660361	0.996646	2.830000	0.674488	0.329908	-43.744672
160.313075	0.029722	0.204684	0.206831	90.503917	8.478746	0.222529	51.809488	51.809488	51.809488	0.647249	0.991169	2.830000	0.686971	0.333776	-43.341759
162.622309	0.030576	0.207536	0.209776	90.558624	8.382851	0.217652	51.276819	51.276819	51.276819	0.634306	0.985844	2.830000	0.699437	0.337594	-42.937650
164.964807	0.031453	0.210424	0.212762	90.612340	8.290303	0.212858	50.747320	50.747320	50.747320	0.621532	0.980667	2.830000	0.711880	0.341363	-42.532575
167.341048	0.032356	0.213350	0.215790	90.665070	8.200961	0.208148	50.221048	50.221048	50.221048	0.608927	0.975634	2.830000	0.724293	0.345082	-42.126751
169.751517	0.033284	0.216314	0.218859	90.716821	8.114690	0.203519	49.698061	49.698061	49.698061	0.596491	0.970740	2.830000	0.736671	0.348750	-41.720389
172.196708	0.034239	0.219315	0.221972	90.767602	8.031362	0.198972	49.178413	49.178413	49.178413	0.584224	0.965983	2.830000	0.749006	0.352369	-41.313687
174.677121	0.035221	0.222355	0.225127	90.817418	7.950857	0.194506	48.662158	48.662158	48.662158	0.572125	0.961357	2.830000	0.761293	0.355936	-40.906835
177.193263	0.036230	0.225433	0.228326	90.866278	7.873060	0.190121	48.149350	48.149350	48.149350	0.560195	0.956858	2.830000	0.773526	0.359454	-40.500014
179.745648	0.037268	0.228550	0.231568	90.914189	7.797864	0.185815	47.640040	47.640040	47.640040	0.548432	0.952483	2.830000	0.785699	0.362920	-40.093397
182.334800	0.038336	0.231706	0.234856	90.961160	7.725164	0.181587	47.134279	47.134279	47.134279	0.536838	0.948227	2.830000	0.797807	0.366335	-39.687150
184.961247	0.039433	0.234902	0.238189	91.007198	7.654864	0.177438	46.632116	46.632116	46.632116	0.525410	0.944088	2.830000	0.809845	0.369700	-39.281430
187.625527	0.040562	0.238138	0.241568	91.052313	7.586869	0.173366	46.133600	46.133600	46.133600	0.514150	0.940060	2.830000	0.821807	0.373013	-38.876389
190.328185	0.041722	0.241414	0.244993	91.096512	7.521092	0.169370	45.638776	45.638776	45.638776	0.503057	0.936141	2.830000	0.833689	0.376275	-38.472170
193.069773	0.042915	0.244731	0.248465	91.139804	7.457448	0.165451	45.147692	45.147692	45.147692	0.492131	0.932328	2.830000	0.845486	0.379486	-38.068911
195.850852	0.044142	0.248088	0.251985	91.182197	7.395857	0.161606	44.660389	44.660389	44.660389	0.481371	0.928615	2.830000	0.857192	0.382647	-37.666743
198.671992	0.045403	0.251487	0.255552	91.223702	7.336242	0.157835	44.176911	44.176911	44.176911	0.470776	0.925001	2.830000	0.868805	0.385756	-37.265793
201.533769	0.046700	0.254927	0.259169	91.264326	7.278531	0.154138	43.697298	43.697298	43.697298	0.460347	0.921482	2.830000	0.880319	0.388815	-36.866180
204.436768	0.048033	0.258408	0.262835	91.304079	7.222653	0.150513	43.221590	43.221590	43.221590	0.450082	0.918054	2.830000	0.891732	0.391823	-36.468018
207.381584	0.049403	0.261932	0.266550	91.342970	7.168543	0.146960	42.749825	42.749825	42.749825	0.439981	0.914714	2.830000	0.903038	0.394780	-36.071418
210.368818	0.050812	0.265498	0.270316	91.381008	7.116136	0.143478	42.282038	42.282038	42.282038	0.430044	0.911460	2.830000	0.914234	0.397688	-35.676482
213.399082	0.052260	0.269106	0.274133	91.418203	7.065372	0.140065	41.818265	41.818265	41.818265	0.420269	0.908289	2.830000	0.925317	0.400545	-35.283312
216.472995	0.053749	0.272757	0.278002	91.454565	7.016193	0.136722	41.358537	41.358537	41.358537	0.410657	0.905197	2.830000	0.936285	0.403353	-34.892000
219.591187	0.055279	0.276450	0.281923	91.490102	6.968543	0.133447	40.902887	40.902887	40.902887	0.401206	0.902181	2.830000	0.947133	0.406111	-34.502639
222.754295	0.056852	0.280187	0.285897	91.524824	6.922369	0.130239	40.451344	40.451344	40.451344	0.391915	0.899239	2.830000	0.957859	0.408820	-34.115313
225.962966	0.058469	0.283967	0.289924	91.558741	6.877619	0.127097	40.003936	40.003936	40.003936	0.382784	0.896369	2.830000	0.968460	0.411480	-33.730104
229.217857	0.060131	0.287790	0.294005	91.591863	6.834245	0.124021	39.560690	39.560690	39.560690	0.373812	0.893566	2.830000	0.978935	0.414091	-33.347090
232.519632	0.061839	0.291657	0.298141	91.624198	6.792200	0.121009	39.121629	39.121629	39.121629	0.364997	0.890830	2.830000	0.989280	0.416654	-32.966345
235.868968	0.063594	0.295568	0.302332	91.655757	6.751439	0.118061	38.686778	38.686778	38.686778	0.356339	0.888157	2.830000	0.999494	0.419170	-32.587938
239.266550	0.065399	0.299523	0.306579	91.686550	6.711919	0.115175	38.256158	38.256158	38.256158	0.347836	0.885545	2.830000	1.009575	0.421638	-32.211935
242.713072	0.067253	0.303521	0.310883	91.716585	6.673597	0.112352	37.829788	37.829788	37.829788	0.339488	0.882992	2.830000	1.019521	0.424059	-31.838399
246.209240	0.069158	0.307564	0.315243	91.745873	6.636435	0.109589	37.407686	37.407686	37.407686	0.331294	0.880494	2.830000	1.029331	0.426434	-31.467390
249.755769	0.071116	0.311651	0.319662	91.774423	6.600394	0.106886	36.989869	36.989869	36.989869	0.323251	0.878051	2.830000	1.039003	0.428762	-31.098962
253.353383	0.073128	0.315782	0.324138	91.802245	6.565437	0.104242	36.576352	36.576352	36.576352	0.315360	0.875659	2.830000	1.048537	0.431045	-30.733168
257.002820	0.075196	0.319957	0.328674	91.829347	6.531528	0.101656	36.167148	36.167148	36.167148	0.307617	0.873317	2.830000	1.057930	0.433283	-30.370058
260.704825	0.077320	0.324176	0.333269	91.855740	6.498634	0.099127	35.762268	35.762268	35.762268	0.300024	0.871022	2.830000	1.067183	0.435476	-30.009678
264.460155	0.079502	0.328439	0.337924	91.881432	6.466721	0.096654	35.361723	35.361723	35.361723	0.292577	0.868773	2.830000	1.076295	0.437625	-29.652071
268.269580	0.081745	0.332746	0.342640	91.906434	6.435759	0.094237	34.965521	34.965521	34.965521	0.285275	0.866567	2.830000	1.085265	0.439731	-29.297278
272.133877	0.084048	0.337098	0.347418	91.930753	6.405716	0.091873	34.573669	34.573669	34.573669	0.278117	0.864402	2.830000	1.094092	0.441793	-28.945336
276.053838	0.086415	0.341493	0.352257	91.954399	6.376563	0.089563	34.186172	34.186172	34.186172	0.271102	0.862277	2.830000	1.102777	0.443813	-28.596280
280.030263	0.088845	0.345932	0.357159	91.977382	6.348272	0.087306	33.803034	33.803034	33.803034	0.264228	0.860189	2.830000	1.111319	0.445791	-28.250143
284.063968	0.091343	0.350414	0.362124	91.999709	6.320816	0.085100	33.424258	33.424258	33.424258	0.257493	0.858136	2.830000	1.119719	0.447727	-27.906954
288.155776	0.093907	0.354940	0.367152	92.021389	6.294168	0.082945	33.049845	33.049845	33.049845	0.250896	0.856118	2.830000	1.127976	0.449623	-27.566741
292.306525	0.096542	0.359508	0.372245	92.042432	6.268303	0.080840	32.679794	32.679794	32.679794	0.244436	0.854131	2.830000	1.136090	0.451478	-27.229529
296.517063	0.099247	0.364120	0.377403	92.062844	6.243197	0.078783	32.314103	32.314103	32.314103	0.238109	0.852175	2.830000	1.144063	0.453293	-26.895340
300.788252	0.102025	0.368773	0.382627	92.082636	6.218825	0.076774	31.952769	31.952769	31.952769	0.231916	0.850247	2.830000	1.151895	0.455070	-26.564195
305.120965	0.104879	0.373469	0.387916	92.101814	6.195166	0.074812	31.595787	31.595787	31.595787	0.225854	0.848346	2.830000	1.159585	0.456808	-26.236112
309.516090	0.107808	0.378206	0.393272	92.120387	6.172196	0.072897	31.243152	31.243152	31.243152	0.219922	0.846470	2.830000	1.167136	0.458508	-25.911107
313.974523	0.110817	0.382985	0.398695	92.138362	6.149895	0.071026	30.894856	30.894856	30.894856	0.214117	0.844618	2.830000	1.174547	0.460170	-25.589196
318.497179	0.113905	0.387803	0.404185	92.155748	6.128242	0.069200	30.550891	30.550891	30.550891	0.208439	0.842787	2.830000	1.181819	0.461796	-25.270389
323.084981	0.117076	0.392662	0.409744	92.172550	6.107217	0.067418	30.211246	30.211246	30.211246	0.202884	0.840977	2.830000	1.188954	0.463386	-24.954698
327.738869	0.120331	0.397560	0.415372	92.188778	6.086801	0.065678	29.875912	29.875912	29.875912	0.197453	0.839186	2.830000	1.195953	0.464940	-24.642132
332.459793	0.123673	0.402497	0.421069	92.204437	6.066975	0.063980	29.544875	29.544875	29.544875	0.192142	0.837411	2.830000	1.202816	0.466460	-24.332696
337.248720	0.127102	0.407471	0.426835	92.219535	6.047722	0.062323	29.218124	29.218124	29.218124	0.186950	0.835653	2.830000	1.209545	0.467945	-24.026398
342.106630	0.130623	0.412483	0.432671	92.234078	6.029024	0.060706	28.895642	28.895642	28.895642	0.181875	0.833908	2.830000	1.216141	0.469396	-23.723239
347.034515	0.134235	0.417531	0.438579	92.248072	6.010864	0.059128	28.577414	28.577414	28.577414	0.176916	0.832176	2.830000	1.222606	0.470814	-23.423223
352.033384	0.137942	0.422614	0.444557	92.261524	5.993225	0.057589	28.263425	28.263425	28.263425	0.172070	0.830455	2.830000	1.228940	0.472200	-23.126349
357.104260	0.141746	0.427732	0.450607	92.274440	5.976093	0.056088	27.953655	27.953655	27.953655	0.167337	0.828744	2.830000	1.235145	0.473554	-22.832618
362.248179	0.145649	0.432882	0.456728	92.286825	5.959451	0.054623	27.648088	27.648088	27.648088	0.162713	0.827041	2.830000	1.241223	0.474876	-22.542027
367.466194	0.149654	0.438065	0.462922	92.298685	5.943286	0.053195	27.346702	27.346702	27.346702	0.158198	0.825345	2.830000	1.247175	0.476168	-22.254572
372.759372	0.153761	0.443278	0.469189	92.310025	5.927582	0.051802	27.049477	27.049477	27.049477	0.153789	0.823654	2.830000	1.253003	0.477429	-21.970249
378.128796	0.157975	0.448521	0.475528	92.320851	5.912326	0.050444	26.756391	26.756391	26.756391	0.149484	0.821967	2.830000	1.258709	0.478661	-21.689052
383.575563	0.162296	0.453792	0.481941	92.331166	5.897504	0.049119	26.467422	26.467422	26.467422	0.145283	0.820282	2.830000	1.264293	0.479864	-21.410974
389.100789	0.166728	0.459089	0.488427	92.340976	5.883104	0.047828	26.182547	26.182547	26.182547	0.141183	0.818599	2.830000	1.269758	0.481039	-21.136006
394.705603	0.171273	0.464412	0.494988	92.350285	5.869112	0.046569	25.901740	25.901740	25.901740	0.137182	0.816915	2.830000	1.275105	0.482185	-20.864139
400.391152	0.175933	0.469758	0.501622	92.359096	5.855517	0.045341	25.624977	25.624977	25.624977	0.133279	0.815229	2.830000	1.280337	0.483305	-20.595363
406.158599	0.180710	0.475125	0.508331	92.367414	5.842307	0.044145	25.352232	25.352232	25.352232	0.129471	0.813540	2.830000	1.285454	0.484398	-20.329667
412.009123	0.185608	0.480512	0.515114	92.375241	5.829470	0.042979	25.083477	25.083477	25.083477	0.125758	0.811847	2.830000	1.290459	0.485464	-20.067038
417.943921	0.190628	0.485917	0.521972	92.382581	5.816995	0.041842	24.818685	24.818685	24.818685	0.122137	0.810148	2.830000	1.295354	0.486505	-19.807464
423.964207	0.195772	0.491338	0.528904	92.389437	5.804872	0.040735	24.557827	24.557827	24.557827	0.118607	0.808441	2.830000	1.300139	0.487522	-19.550930
430.071212	0.201044	0.496772	0.535911	92.395812	5.793089	0.039655	24.300875	24.300875	24.300875	0.115166	0.806725	2.830000	1.304818	0.488513	-19.297422
436.266186	0.206446	0.502217	0.542993	92.401707	5.781637	0.038604	24.047797	24.047797	24.047797	0.111813	0.804999	2.830000	1.309391	0.489481	-19.046924
442.550395	0.211980	0.507671	0.550150	92.407125	5.770506	0.037579	23.798563	23.798563	23.798563	0.108545	0.803262	2.830000	1.313861	0.490425	-18.799420
448.925126	0.217649	0.513131	0.557382	92.412066	5.759686	0.036580	23.553141	23.553141	23.553141	0.105361	0.801512	2.830000	1.318230	0.491346	-18.554894
455.391681	0.223456	0.518594	0.564688	92.416534	5.749169	0.035608	23.311500	23.311500	23.311500	0.102260	0.799747	2.830000	1.322499	0.492245	-18.313327
461.951385	0.229402	0.524059	0.572069	92.420528	5.738944	0.034660	23.073605	23.073605	23.073605	0.099239	0.797966	2.830000	1.326670	0.493122	-18.074702
468.605578	0.235490	0.529520	0.579523	92.424049	5.729004	0.033737	22.839423	22.839423	22.839423	0.096298	0.796168	2.830000	1.330745	0.493978	-17.839000
475.355621	0.241723	0.534977	0.587052	92.427099	5.719339	0.032838	22.608920	22.608920	22.608920	0.093435	0.794351	2.830000	1.334725	0.494812	-17.606202
482.202895	0.248103	0.540425	0.594655	92.429675	5.709942	0.031962	22.382061	22.382061	22.382061	0.090648	0.792514	2.830000	1.338614	0.495627	-17.376288
489.148802	0.254632	0.545861	0.602330	92.431779	5.700805	0.031109	22.158808	22.158808	22.158808	0.087935	0.790655	2.830000	1.342411	0.496421	-17.149238
496.194760	0.261314	0.551281	0.610079	92.433410	5.691919	0.030279	21.939126	21.939126	21.939126	0.085296	0.788772	2.830000	1.346120	0.497196	-16.925031
503.342213	0.268149	0.556682	0.617899	92.434567	5.683278	0.029470	21.722978	21.722978	21.722978	0.082729	0.786865	2.830000	1.349742	0.497952	-16.703646
510.592621	0.275142	0.562061	0.625792	92.435248	5.674874	0.028682	21.510325	21.510325	21.510325	0.080232	0.784932	2.830000	1.353278	0.498689	-16.485062
517.947468	0.282293	0.567412	0.633755	92.435451	5.666700	0.027915	21.301128	21.301128	21.301128	0.077804	0.782971	2.830000	1.356731	0.499409	-16.269257
525.408258	0.289606	0.572732	0.641789	92.435175	5.658749	0.027168	21.095348	21.095348	21.095348	0.075443	0.780980	2.830000	1.360103	0.500111	-16.056208
532.976517	0.297082	0.578016	0.649892	92.434416	5.651014	0.026441	20.892945	20.892945	20.892945	0.073149	0.778959	2.830000	1.363394	0.500795	-15.845893
540.653794	0.304723	0.583260	0.658064	92.433173	5.643489	0.025733	20.693877	20.693877	20.693877	0.070919	0.776905	2.830000	1.366607	0.501463	-15.638290
548.441658	0.312532	0.588459	0.666304	92.431441	5.636168	0.025043	20.498104	20.498104	20.498104	0.068753	0.774817	2.830000	1.369743	0.502114	-15.433375
556.341702	0.320510	0.593609	0.674610	92.429217	5.629043	0.024372	20.305583	20.305583	20.305583	0.066649	0.772693	2.830000	1.372805	0.502750	-15.231125
564.355543	0.328660	0.598703	0.682981	92.426496	5.622111	0.023719	20.116270	20.116270	20.116270	0.064606	0.770532	2.830000	1.375793	0.503370	-15.031516
572.484820	0.336983	0.603738	0.691417	92.423275	5.615363	0.023083	19.930122	19.930122	19.930122	0.062622	0.768332	2.830000	1.378710	0.503975	-14.834525
580.731195	0.345481	0.608707	0.699915	92.419548	5.608796	0.022464	19.747094	19.747094	19.747094	0.060697	0.766091	2.830000	1.381557	0.504565	-14.640128
589.096355	0.354154	0.613605	0.708474	92.415309	5.602403	0.021862	19.567140	19.567140	19.567140	0.058829	0.763808	2.830000	1.384335	0.505140	-14.448300
597.582011	0.363006	0.618425	0.717094	92.410552	5.596179	0.021275	19.390214	19.390214	19.390214	0.057017	0.761480	2.830000	1.387047	0.505702	-14.259017
606.189899	0.372037	0.623163	0.725771	92.405272	5.590119	0.020704	19.216270	19.216270	19.216270	0.055260	0.759106	2.830000	1.389693	0.506250	-14.072255
614.921780	0.381248	0.627811	0.734504	92.399460	5.584218	0.020149	19.045259	19.045259	19.045259	0.053557	0.756685	2.830000	1.392276	0.506785	-13.887989
623.779440	0.390640	0.632364	0.743292	92.393111	5.578471	0.019608	18.877132	18.877132	18.877132	0.051906	0.754214	2.830000	1.394797	0.507307	-13.706195
632.764690	0.400214	0.636814	0.752132	92.386215	5.572873	0.019082	18.711840	18.711840	18.711840	0.050306	0.751691	2.830000	1.397257	0.507817	-13.526847
641.879368	0.409970	0.641154	0.761022	92.378764	5.567419	0.018570	18.549332	18.549332	18.549332	0.048757	0.749115	2.830000	1.399658	0.508315	-13.349921
651.125339	0.419910	0.645378	0.769959	92.370750	5.562105	0.018071	18.389557	18.389557	18.389557	0.047257	0.746485	2.830000	1.402002	0.508800	-13.175392
660.504493	0.430032	0.649478	0.778942	92.362162	5.556927	0.017587	18.232462	18.232462	18.232462	0.045806	0.743796	2.830000	1.404289	0.509274	-13.003235
670.018750	0.440338	0.653448	0.787967	92.352990	5.551881	0.017115	18.077994	18.077994	18.077994	0.044402	0.741049	2.830000	1.406521	0.509737	-12.833424
679.670056	0.450827	0.657278	0.797031	92.343224	5.546961	0.016655	17.926099	17.926099	17.926099	0.043044	0.738241	2.830000	1.408700	0.510189	-12.665935
689.460384	0.461497	0.660961	0.806132	92.332853	5.542165	0.016209	17.776721	17.776721	17.776721	0.041731	0.735370	2.830000	1.410827	0.510631	-12.500743
699.391737	0.472350	0.664490	0.815267	92.321864	5.537487	0.015774	17.629805	17.629805	17.629805	0.040463	0.732434	2.830000	1.412903	0.511062	-12.337821
709.466146	0.483382	0.667855	0.824432	92.310245	5.532925	0.015351	17.485292	17.485292	17.485292	0.039239	0.729431	2.830000	1.414930	0.511484	-12.177145
719.685673	0.494594	0.671049	0.833624	92.297982	5.528474	0.014939	17.343124	17.343124	17.343124	0.038057	0.726358	2.830000	1.416909	0.511895	-12.018690
730.052407	0.505982	0.674063	0.842840	92.285061	5.524131	0.014539	17.203242	17.203242	17.203242	0.036916	0.723214	2.830000	1.418841	0.512298	-11.862430
740.568469	0.517546	0.676887	0.852074	92.271469	5.519893	0.014149	17.065585	17.065585	17.065585	0.035816	0.719997	2.830000	1.420727	0.512691	-11.708340
751.236010	0.529282	0.679514	0.861324	92.257189	5.515755	0.013770	16.930092	16.930092	16.930092	0.034757	0.716704	2.830000	1.422569	0.513076	-11.556395
762.057212	0.541187	0.681933	0.870584	92.242205	5.511715	0.013401	16.796698	16.796698	16.796698	0.033736	0.713333	2.830000	1.424368	0.513452	-11.406569
773.034288	0.553259	0.684136	0.879851	92.226501	5.507769	0.013042	16.665341	16.665341	16.665341	0.032753	0.709883	2.830000	1.426125	0.513820	-11.258837
784.169484	0.565494	0.686113	0.889120	92.210058	5.503914	0.012693	16.535955	16.535955	16.535955	0.031808	0.706350	2.830000	1.427842	0.514180	-11.113174
795.465078	0.577887	0.687855	0.898386	92.192859	5.500147	0.012354	16.408473	16.408473	16.408473	0.030900	0.702733	2.830000	1.429519	0.514532	-10.969554
806.923378	0.590433	0.689352	0.907644	92.174884	5.496465	0.012023	16.282828	16.282828	16.282828	0.030027	0.699029	2.830000	1.431158	0.514876	-10.827952
818.546731	0.603129	0.690594	0.916888	92.156113	5.492865	0.011702	16.158951	16.158951	16.158951	0.029190	0.695237	2.830000	1.432759	0.515214	-10.688343
830.337512	0.615967	0.691571	0.926114	92.136524	5.489343	0.011389	16.036771	16.036771	16.036771	0.028386	0.691353	2.830000	1.434324	0.515544	-10.550702
842.298134	0.628942	0.692274	0.935314	92.116097	5.485898	0.011085	15.916217	15.916217	15.916217	0.027617	0.687375	2.830000	1.435854	0.515868	-10.415003
854.431043	0.642048	0.692693	0.944483	92.094807	5.482526	0.010789	15.797216	15.797216	15.797216	0.026880	0.683302	2.830000	1.437349	0.516185	-10.281221
866.738721	0.655276	0.692817	0.953616	92.072631	5.479225	0.010501	15.679695	15.679695	15.679695	0.026175	0.679131	2.830000	1.438812	0.516496	-10.149331
879.223685	0.668619	0.692638	0.962704	92.049545	5.475992	0.010221	15.563577	15.563577	15.563577	0.025502	0.674859	2.830000	1.440243	0.516801	-10.019307
891.888489	0.682068	0.692144	0.971741	92.025522	5.472825	0.009948	15.448787	15.448787	15.448787	0.024859	0.670485	2.830000	1.441642	0.517100	-9.891125
904.735724	0.695615	0.691327	0.980721	92.000535	5.469721	0.009683	15.335246	15.335246	15.335246	0.024246	0.666006	2.830000	1.443012	0.517394	-9.764758
917.768017	0.709249	0.690177	0.989636	91.974557	5.466677	0.009425	15.222877	15.222877	15.222877	0.023662	0.661420	2.830000	1.444352	0.517682	-9.640182
930.988035	0.722960	0.688684	0.998477	91.947558	5.463692	0.009174	15.111597	15.111597	15.111597	0.023107	0.656724	2.830000	1.445664	0.517965	-9.517371
944.398480	0.736737	0.686839	1.007238	91.919508	5.460764	0.008930	15.001327	15.001327	15.001327	0.022580	0.651917	2.830000	1.446948	0.518243	-9.396300
958.002097	0.750567	0.684632	1.015910	91.890376	5.457889	0.008693	14.891983	14.891983	14.891983	0.022080	0.646996	2.830000	1.448206	0.518516	-9.276944
971.801667	0.764439	0.682056	1.024484	91.860129	5.455065	0.008462	14.783483	14.783483	14.783483	0.021607	0.641959	2.830000	1.449439	0.518784	-9.159277
985.800014	0.778339	0.679102	1.032952	91.828733	5.452292	0.008237	14.675740	14.675740	14.675740	0.021159	0.636804	2.830000	1.450647	0.519048	-9.043275
1000.000000	0.792252	0.675760	1.041305	91.796153	5.449566	0.008018	14.568671	14.568671	14.568671	0.020736	0.631530	2.830000	1.451830	0.519307	-8.928911
1014.404530	0.806165	0.672025	1.049533	91.762354	5.446885	0.007805	14.462189	14.462189	14.462189	0.020337	0.626133	2.830000	1.452991	0.519563	-8.816160
1029.016551	0.820061	0.667888	1.057626	91.727297	5.444249	0.007598	14.356205	14.356205	14.356205	0.019963	0.620613	2.830000	1.454130	0.519815	-8.704997
1043.839051	0.833924	0.663342	1.065576	91.690943	5.441654	0.007397	14.250633	14.250633	14.250633	0.019611	0.614967	2.830000	1.455246	0.520062	-8.595396
1058.875063	0.847737	0.658382	1.073370	91.653253	5.439099	0.007201	14.145384	14.145384	14.145384	0.019281	0.609195	2.830000	1.456342	0.520307	-8.487332
1074.127661	0.861481	0.653002	1.081000	91.614184	5.436582	0.007010	14.040368	14.040368	14.040368	0.018973	0.603293	2.830000	1.457418	0.520548	-8.380779
1089.599965	0.875140	0.647197	1.088455	91.573694	5.434102	0.006825	13.935497	13.935497	13.935497	0.018686	0.597262	2.830000	1.458475	0.520785	-8.275712
1105.295141	0.888692	0.640963	1.095722	91.531738	5.431657	0.006644	13.830680	13.830680	13.830680	0.018419	0.591099	2.830000	1.459513	0.521020	-8.172104
1121.216399	0.902118	0.634296	1.102792	91.488270	5.429245	0.006468	13.725829	13.725829	13.725829	0.018171	0.584804	2.830000	1.460533	0.521251	-8.069930
1137.366994	0.915398	0.627196	1.109652	91.443245	5.426865	0.006297	13.620854	13.620854	13.620854	0.017942	0.578375	2.830000	1.461536	0.521480	-7.969165
1153.750232	0.928509	0.619659	1.116291	91.396612	5.424516	0.006131	13.515666	13.515666	13.515666	0.017731	0.571812	2.830000	1.462522	0.521706	-7.869782
1170.369462	0.941429	0.611686	1.122697	91.348322	5.422195	0.005969	13.410176	13.410176	13.410176	0.017536	0.565114	2.830000	1.463491	0.521929	-7.771755
1187.228084	0.954136	0.603277	1.128858	91.298324	5.419902	0.005811	13.304296	13.304296	13.304296	0.017358	0.558282	2.830000	1.464446	0.522150	-7.675059
1204.329547	0.966607	0.594436	1.134761	91.246565	5.417635	0.005658	13.197941	13.197941	13.197941	0.017195	0.551314	2.830000	1.465385	0.522368	-7.579667
1221.677349	0.978817	0.585164	1.140394	91.192992	5.415394	0.005509	13.091025	13.091025	13.091025	0.017047	0.544212	2.830000	1.466310	0.522584	-7.485554
1239.275037	0.990742	0.575467	1.145745	91.137549	5.413177	0.005363	12.983465	12.983465	12.983465	0.016912	0.536975	2.830000	1.467221	0.522798	-7.392694
1257.126212	1.002357	0.565351	1.150800	91.080180	5.410982	0.005222	12.875178	12.875178	12.875178	0.016791	0.529604	2.830000	1.468119	0.523010	-7.301059
1275.234525	1.013638	0.554823	1.155548	91.020827	5.408810	0.005084	12.766086	12.766086	12.766086	0.016681	0.522101	2.830000	1.469004	0.523220	-7.210625
1293.603680	1.024558	0.543893	1.159974	90.959432	5.406658	0.004950	12.656111	12.656111	12.656111	0.016582	0.514466	2.830000	1.469876	0.523429	-7.121364
1312.237433	1.035093	0.532572	1.164067	90.895936	5.404527	0.004819	12.545181	12.545181	12.545181	0.016493	0.506703	2.830000	1.470737	0.523635	-7.033252
1331.139597	1.045217	0.520872	1.167813	90.830278	5.402415	0.004692	12.433225	12.433225	12.433225	0.016414	0.498812	2.830000	1.471585	0.523840	-6.946261
1350.314038	1.054905	0.508807	1.171200	90.762396	5.400322	0.004569	12.320176	12.320176	12.320176	0.016342	0.490796	2.830000	1.472423	0.524043	-6.860365
1369.764677	1.064130	0.496395	1.174215	90.692231	5.398246	0.004448	12.205973	12.205973	12.205973	0.016278	0.482660	2.830000	1.473250	0.524244	-6.775540
1389.495494	1.072869	0.483653	1.176846	90.619719	5.396188	0.004331	12.090559	12.090559	12.090559	0.016220	0.474405	2.830000	1.474066	0.524444	-6.691758
1409.510524	1.081095	0.470601	1.179081	90.544798	5.394147	0.004216	11.973880	11.973880	11.973880	0.016167	0.466036	2.830000	1.474872	0.524643	-6.608994
1429.813862	1.088787	0.457262	1.180909	90.467407	5.392123	0.004105	11.855891	11.855891	11.855891	0.016119	0.457558	2.830000	1.475668	0.524840	-6.527223
1450.409659	1.095919	0.443661	1.182317	90.387483	5.390115	0.003997	11.736551	11.736551	11.736551	0.016073	0.448975	2.830000	1.476455	0.525035	-6.446418
1471.302129	1.102470	0.429822	1.183295	90.304967	5.388123	0.003891	11.615827	11.615827	11.615827	0.016029	0.440294	2.830000	1.477232	0.525229	-6.366555
1492.495545	1.108418	0.415776	1.183833	90.219798	5.386147	0.003788	11.493692	11.493692	11.493692	0.015987	0.431519	2.830000	1.478000	0.525422	-6.287609
1513.994242	1.113743	0.401552	1.183920	90.131918	5.384186	0.003688	11.370127	11.370127	11.370127	0.015944	0.422658	2.830000	1.478759	0.525613	-6.209556
1535.802619	1.118427	0.387184	1.183550	90.041269	5.382242	0.003590	11.245121	11.245121	11.245121	0.015900	0.413717	2.830000	1.479508	0.525803	-6.132370
1557.925134	1.122452	0.372705	1.182712	89.947798	5.380313	0.003495	11.118674	11.118674	11.118674	0.015854	0.404706	2.830000	1.480249	0.525992	-6.056029
1580.366314	1.125804	0.358154	1.181401	89.851453	5.378400	0.003402	10.990790	10.990790	10.990790	0.015804	0.395631	2.830000	1.480981	0.526179	-5.980509
1603.130749	1.128469	0.343567	1.179611	89.752186	5.376504	0.003312	10.861488	10.861488	10.861488	0.015750	0.386502	2.830000	1.481705	0.526364	-5.905787
1626.223094	1.130438	0.328987	1.177337	89.649954	5.374625	0.003224	10.730794	10.730794	10.730794	0.015691	0.377328	2.830000	1.482419	0.526548	-5.831841
1649.648074	1.131701	0.314455	1.174576	89.544717	5.372763	0.003138	10.598745	10.598745	10.598745	0.015625	0.368119	2.830000	1.483126	0.526731	-5.758650
1673.410480	1.132253	0.300015	1.171326	89.436443	5.370919	0.003055	10.465389	10.465389	10.465389	0.015552	0.358886	2.830000	1.483823	0.526912	-5.686193
1697.515172	1.132092	0.285714	1.167589	89.325103	5.369093	0.002973	10.330784	10.330784	10.330784	0.015470	0.349640	2.830000	1.484511	0.527091	-5.614450
1721.967081	1.131218	0.271596	1.163365	89.210679	5.367287	0.002894	10.195003	10.195003	10.195003	0.015379	0.340393	2.830000	1.485191	0.527268	-5.543401
1746.771208	1.129636	0.257711	1.158660	89.093159	5.365500	0.002816	10.058125	10.058125	10.058125	0.015277	0.331156	2.830000	1.485861	0.527444	-5.473030
1771.932627	1.127354	0.244107	1.153480	88.972542	5.363735	0.002741	9.920245	9.920245	9.920245	0.015165	0.321942	2.830000	1.486523	0.527617	-5.403318
1797.456484	1.124383	0.230834	1.147833	88.848838	5.361991	0.002667	9.781469	9.781469	9.781469	0.015040	0.312764	2.830000	1.487175	0.527789	-5.334250
1823.348001	1.120739	0.217940	1.141733	88.722066	5.360269	0.002595	9.641913	9.641913	9.641913	0.014903	0.303635	2.830000	1.487817	0.527959	-5.265811
1849.612473	1.116441	0.205476	1.135192	88.592260	5.358571	0.002525	9.501705	9.501705	9.501705	0.014752	0.294568	2.830000	1.488450	0.528126	-5.197988
1876.255272	1.111515	0.193491	1.128231	88.459470	5.356898	0.002457	9.360986	9.360986	9.360986	0.014588	0.285579	2.830000	1.489072	0.528291	-5.130767
1903.281848	1.105988	0.182032	1.120868	88.323760	5.355251	0.002391	9.219906	9.219906	9.219906	0.014410	0.276679	2.830000	1.489685	0.528453	-5.064138
1930.697729	1.099895	0.171149	1.113131	88.185210	5.353631	0.002326	9.078626	9.078626	9.078626	0.014217	0.267883	2.830000	1.490287	0.528613	-4.998091
1958.508523	1.093272	0.160885	1.105046	88.043920	5.352039	0.002263	8.937318	8.937318	8.937318	0.014009	0.259205	2.830000	1.490878	0.528770	-4.932618
1986.719919	1.086162	0.151285	1.096647	87.900012	5.350476	0.002201	8.796161	8.796161	8.796161	0.013786	0.250660	2.830000	1.491459	0.528925	-4.867713
2015.337686	1.078612	0.142390	1.087970	87.753626	5.348944	0.002141	8.655343	8.655343	8.655343	0.013549	0.242259	2.830000	1.492028	0.529076	-4.803369
2044.367679	1.070674	0.134237	1.079056	87.604926	5.347443	0.002082	8.515061	8.515061	8.515061	0.013296	0.234017	2.830000	1.492585	0.529225	-4.739583
2073.815835	1.062404	0.126862	1.069952	87.454099	5.345974	0.002025	8.375515	8.375515	8.375515	0.013028	0.225947	2.830000	1.493131	0.529370	-4.676352
2103.688178	1.053862	0.120294	1.060705	87.301359	5.344540	0.001970	8.236912	8.236912	8.236912	0.012747	0.218061	2.830000	1.493664	0.529512	-4.613677
2133.990819	1.045112	0.114559	1.051372	87.146942	5.343140	0.001915	8.099462	8.099462	8.099462	0.012451	0.210370	2.830000	1.494186	0.529651	-4.551556
2164.729954	1.036223	0.109677	1.042011	86.991110	5.341776	0.001863	7.963376	7.963376	7.963376	0.012143	0.202886	2.830000	1.494694	0.529786	-4.489992
2195.911873	1.027265	0.105662	1.032685	86.834154	5.340448	0.001811	7.828864	7.828864	7.828864	0.011821	0.195620	2.830000	1.495190	0.529918	-4.428989
2227.542952	1.018312	0.102524	1.023460	86.676385	5.339158	0.001761	7.696139	7.696139	7.696139	0.011489	0.188580	2.830000	1.495672	0.530046	-4.368551
2259.629662	1.009441	0.100264	1.014409	86.518140	5.337906	0.001712	7.565405	7.565405	7.565405	0.011146	0.181776	2.830000	1.496142	0.530170	-4.308683
2292.178566	1.000730	0.098875	1.005603	86.359778	5.336692	0.001664	7.436863	7.436863	7.436863	0.010793	0.175213	2.830000	1.496598	0.530291	-4.249392
2325.196322	0.992258	0.098345	0.997120	86.201677	5.335518	0.001618	7.310707	7.310707	7.310707	0.010433	0.168900	2.830000	1.497041	0.530408	-4.190687
2358.689683	0.984104	0.098652	0.989036	86.044231	5.334383	0.001573	7.187121	7.187121	7.187121	0.010066	0.162839	2.830000	1.497470	0.530521	-4.132576
2392.665500	0.976346	0.099766	0.981430	85.887844	5.333288	0.001529	7.066277	7.066277	7.066277	0.009694	0.157036	2.830000	1.497885	0.530630	-4.075069
2427.130723	0.969063	0.101650	0.974380	85.732928	5.332233	0.001486	6.948333	6.948333	6.948333	0.009318	0.151493	2.830000	1.498287	0.530735	-4.018175
2462.092401	0.962329	0.104257	0.967960	85.579895	5.331217	0.001445	6.833432	6.833432	6.833432	0.008941	0.146210	2.830000	1.498675	0.530836	-3.961906
2497.557686	0.956215	0.107530	0.962242	85.429151	5.330241	0.001404	6.721698	6.721698	6.721698	0.008563	0.141187	2.830000	1.499049	0.530933	-3.906271
2533.533832	0.950787	0.111407	0.957292	85.281086	5.329303	0.001365	6.613236	6.613236	6.613236	0.008187	0.136421	2.830000	1.499411	0.531026	-3.851283
2570.028197	0.946108	0.115814	0.953170	85.136069	5.328405	0.001326	6.508130	6.508130	6.508130	0.007815	0.131911	2.830000	1.499758	0.531116	-3.796952
2607.048246	0.942231	0.120671	0.949927	84.994438	5.327544	0.001289	6.406440	6.406440	6.406440	0.007448	0.127650	2.830000	1.500093	0.531202	-3.743289
2644.601552	0.939203	0.125892	0.947603	84.856492	5.326721	0.001253	6.308202	6.308202	6.308202	0.007088	0.123632	2.830000	1.500415	0.531284	-3.690305
2682.695795	0.937061	0.131380	0.946226	84.722481	5.325933	0.001217	6.213424	6.213424	6.213424	0.006737	0.119851	2.830000	1.500725	0.531362	-3.638008
2721.338768	0.935832	0.137037	0.945812	84.592599	5.325181	0.001183	6.122091	6.122091	6.122091	0.006397	0.116297	2.830000	1.501022	0.531437	-3.586409
2760.538375	0.935532	0.142757	0.946362	84.466979	5.324462	0.001150	6.034157	6.034157	6.034157	0.006069	0.112959	2.830000	1.501308	0.531509	-3.535515
2800.302634	0.936166	0.148431	0.947860	84.345681	5.323775	0.001117	5.949549	5.949549	5.949549	0.005755	0.109828	2.830000	1.501582	0.531578	-3.485334
2840.639679	0.937724	0.153950	0.950277	84.228695	5.323119	0.001086	5.868168	5.868168	5.868168	0.005457	0.106890	2.830000	1.501846	0.531643	-3.435871
2881.557759	0.940183	0.159201	0.953566	84.115932	5.322493	0.001055	5.789884	5.789884	5.789884	0.005175	0.104133	2.830000	1.502099	0.531706	-3.387131
2923.065245	0.943508	0.164074	0.957668	84.007226	5.321894	0.001025	5.714544	5.714544	5.714544	0.004912	0.101543	2.830000	1.502342	0.531766	-3.339117
2965.170628	0.947647	0.168462	0.962504	83.902334	5.321320	0.000996	5.641966	5.641966	5.641966	0.004668	0.099104	2.830000	1.502575	0.531823	-3.291831
3007.882518	0.952535	0.172263	0.967986	83.800940	5.320771	0.000968	5.571947	5.571947	5.571947	0.004443	0.096803	2.830000	1.502800	0.531878	-3.245273
3051.209653	0.958093	0.175381	0.974013	83.702659	5.320244	0.000941	5.504261	5.504261	5.504261	0.004239	0.094623	2.830000	1.503017	0.531931	-3.199439
3095.160895	0.964228	0.177729	0.980471	83.607041	5.319736	0.000915	5.438663	5.438663	5.438663	0.004056	0.092550	2.830000	1.503226	0.531981	-3.154328
3139.745234	0.970835	0.179233	0.987241	83.513583	5.319248	0.000889	5.374893	5.374893	5.374893	0.003894	0.090567	2.830000	1.503428	0.532030	-3.109932
3184.971790	0.977795	0.179830	0.994194	83.421736	5.318775	0.000864	5.312677	5.312677	5.312677	0.003752	0.088660	2.830000	1.503623	0.532077	-3.066245
3230.849813	0.984983	0.179473	1.001200	83.330916	5.318317	0.000840	5.251734	5.251734	5.251734	0.003631	0.086814	2.830000	1.503813	0.532123	-3.023257
3277.388687	0.992262	0.178134	1.008125	83.240512	5.317872	0.000816	5.191780	5.191780	5.191780	0.003529	0.085016	2.830000	1.503997	0.532168	-2.980957
3324.597932	0.999491	0.175801	1.014834	83.149902	5.317438	0.000794	5.132530	5.132530	5.132530	0.003446	0.083250	2.830000	1.504176	0.532211	-2.939331
3372.487204	1.006527	0.172483	1.021198	83.058460	5.317014	0.000771	5.073706	5.073706	5.073706	0.003381	0.081506	2.830000	1.504351	0.532254	-2.898365
3421.066299	1.013223	0.168210	1.027091	82.965572	5.316598	0.000750	5.015040	5.015040	5.015040	0.003331	0.079772	2.830000	1.504522	0.532295	-2.858044
3470.345152	1.019439	0.163036	1.032394	82.870642	5.316188	0.000729	4.956284	4.956284	4.956284	0.003295	0.078039	2.830000	1.504689	0.532336	-2.818349
3520.333844	1.025039	0.157034	1.036998	82.773111	5.315785	0.000709	4.897207	4.897207	4.897207	0.003272	0.076298	2.830000	1.504854	0.532377	-2.779262
3571.042600	1.029897	0.150298	1.040806	82.672460	5.315386	0.000689	4.837611	4.837611	4.837611	0.003259	0.074542	2.830000	1.505016	0.532417	-2.740763
3622.481792	1.033900	0.142946	1.043735	82.568229	5.314991	0.000670	4.777326	4.777326	4.777326	0.003253	0.072766	2.830000	1.505175	0.532456	-2.702833
3674.661941	1.036953	0.135111	1.045718	82.460020	5.314600	0.000651	4.716221	4.716221	4.716221	0.003253	0.070968	2.830000	1.505332	0.532495	-2.665450
3727.593720	1.038981	0.126946	1.046708	82.347516	5.314211	0.000633	4.654206	4.654206	4.654206	0.003256	0.069146	2.830000	1.505486	0.532534	-2.628593
3781.287957	1.039934	0.118614	1.046677	82.230485	5.313826	0.000615	4.591235	4.591235	4.591235	0.003259	0.067301	2.830000	1.505639	0.532573	-2.592243
3835.755635	1.039786	0.110290	1.045619	82.108792	5.313443	0.000598	4.527308	4.527308	4.527308	0.003261	0.065435	2.830000	1.505790	0.532611	-2.556380
3891.007893	1.038542	0.102155	1.043554	81.982411	5.313064	0.000581	4.462474	4.462474	4.462474	0.003258	0.063552	2.830000	1.505939	0.532649	-2.520983
3947.056035	1.036236	0.094389	1.040526	81.851428	5.312688	0.000565	4.396829	4.396829	4.396829	0.003248	0.061658	2.830000	1.506085	0.532687	-2.486036
4003.911523	1.032934	0.087169	1.036605	81.716052	5.312317	0.000550	4.330515	4.330515	4.330515	0.003230	0.059760	2.830000	1.506230	0.532724	-2.451523
4061.585988	1.028733	0.080661	1.031890	81.576617	5.311950	0.000534	4.263718	4.263718	4.263718	0.003202	0.057866	2.830000	1.506372	0.532761	-2.417427
4120.091227	1.023760	0.075016	1.026505	81.433586	5.311589	0.000519	4.196662	4.196662	4.196662	0.003163	0.055986	2.830000	1.506512	0.532797	-2.383738
4179.439206	1.018171	0.070363	1.020599	81.287549	5.311234	0.000505	4.129605	4.129605	4.129605	0.003112	0.054130	2.830000	1.506648	0.532833	-2.350445
4239.642065	1.012143	0.066803	1.014345	81.139213	5.310888	0.000491	4.062831	4.062831	4.062831	0.003048	0.052308	2.830000	1.506782	0.532868	-2.317539
4300.712118	1.005877	0.064405	1.007936	80.989394	5.310550	0.000477	3.996640	3.996640	3.996640	0.002971	0.050530	2.830000	1.506912	0.532902	-2.285016
4362.661857	0.999583	0.063202	1.001579	80.838997	5.310221	0.000463	3.931339	3.931339	3.931339	0.002883	0.048806	2.830000	1.507039	0.532934	-2.252872
4425.503952	0.993483	0.063188	0.995491	80.688989	5.309903	0.000450	3.867233	3.867233	3.867233	0.002783	0.047145	2.830000	1.507162	0.532966	-2.221106
4489.251258	0.987796	0.064311	0.989888	80.540367	5.309597	0.000438	3.804611	3.804611	3.804611	0.002673	0.045555	2.830000	1.507281	0.532997	-2.189719
4553.916814	0.982733	0.066479	0.984979	80.394119	5.309302	0.000425	3.743737	3.743737	3.743737	0.002556	0.044043	2.830000	1.507395	0.533027	-2.158715
4619.513847	0.978485	0.069559	0.980955	80.251177	5.309019	0.000413	3.684837	3.684837	3.684837	0.002432	0.042614	2.830000	1.507506	0.533055	-2.128099
4686.055775	0.975221	0.073377	0.977977	80.112371	5.308750	0.000402	3.628091	3.628091	3.628091	0.002305	0.041271	2.830000	1.507612	0.533082	-2.097876
4753.556208	0.973071	0.077725	0.976170	79.978378	5.308493	0.000390	3.573623	3.573623	3.573623	0.002178	0.040014	2.830000	1.507713	0.533108	-2.068053
4822.028953	0.972124	0.082370	0.975608	79.849680	5.308248	0.000379	3.521495	3.521495	3.521495	0.002052	0.038843	2.830000	1.507810	0.533133	-2.038637
4891.488015	0.972422	0.087057	0.976311	79.726524	5.308016	0.000369	3.471701	3.471701	3.471701	0.001932	0.037755	2.830000	1.507903	0.533156	-2.009635
4961.947603	0.973949	0.091525	0.978240	79.608895	5.307795	0.000358	3.424165	3.424165	3.424165	0.001818	0.036744	2.830000	1.507992	0.533178	-1.981053
5033.422128	0.976637	0.095515	0.981297	79.496505	5.307585	0.000348	3.378744	3.378744	3.378744	0.001714	0.035803	2.830000	1.508077	0.533199	-1.952895
5105.926210	0.980360	0.098784	0.985324	79.388797	5.307385	0.000338	3.335229	3.335229	3.335229	0.001622	0.034924	2.830000	1.508159	0.533219	-1.925165
5179.474679	0.984937	0.101118	0.990114	79.284963	5.307193	0.000329	3.293357	3.293357	3.293357	0.001543	0.034097	2.830000	1.508237	0.533239	-1.897864
5254.082580	0.990143	0.102343	0.995418	79.183982	5.307009	0.000320	3.252816	3.252816	3.252816	0.001478	0.033312	2.830000	1.508313	0.533257	-1.870991
5329.765172	0.995711	0.102339	1.000956	79.084671	5.306831	0.000311	3.213262	3.213262	3.213262	0.001428	0.032557	2.830000	1.508386	0.533275	-1.844542
5406.537936	1.001349	0.101044	1.006434	78.985740	5.306658	0.000302	3.174335	3.174335	3.174335	0.001391	0.031823	2.830000	1.508457	0.533292	-1.818512
5484.416576	1.006753	0.098471	1.011557	78.885865	5.306489	0.000293	3.135676	3.135676	3.135676	0.001368	0.031098	2.830000	1.508526	0.533309	-1.792892
5563.417021	1.011622	0.094699	1.016044	78.783754	5.306323	0.000285	3.096947	3.096947	3.096947	0.001357	0.030374	2.830000	1.508594	0.533326	-1.767670
5643.555431	1.015678	0.089883	1.019647	78.678219	5.306159	0.000277	3.057848	3.057848	3.057848	0.001355	0.029643	2.830000	1.508661	0.533342	-1.742835
5724.848197	1.018682	0.084244	1.022159	78.568245	5.305996	0.000269	3.018136	3.018136	3.018136	0.001360	0.028901	2.830000	1.508727	0.533359	-1.718371
5807.311946	1.020453	0.078059	1.023434	78.453050	5.305834	0.000262	2.977641	2.977641	2.977641	0.001369	0.028143	2.830000	1.508792	0.533375	-1.694264
5890.963548	1.020881	0.071650	1.023392	78.332140	5.305672	0.000254	2.936277	2.936277	2.936277	0.001378	0.027369	2.830000	1.508856	0.533391	-1.670497
5975.820111	1.019938	0.065361	1.022030	78.205351	5.305511	0.000247	2.894050	2.894050	2.894050	0.001386	0.026581	2.830000	1.508920	0.533408	-1.647055
6061.898993	1.017689	0.059542	1.019429	78.072883	5.305351	0.000240	2.851058	2.851058	2.851058	0.001388	0.025781	2.830000	1.508983	0.533424	-1.623924
6149.217802	1.014286	0.054519	1.015750	77.935308	5.305193	0.000234	2.807493	2.807493	2.807493	0.001383	0.024976	2.830000	1.509045	0.533440	-1.601091
6237.794396	1.009968	0.050574	1.011234	77.793565	5.305036	0.000227	2.763619	2.763619	2.763619	0.001368	0.024173	2.830000	1.509106	0.533455	-1.578545
6327.646895	1.005048	0.047923	1.006189	77.648922	5.304883	0.000221	2.719766	2.719766	2.719766	0.001342	0.023380	2.830000	1.509165	0.533471	-1.556278
6418.793677	0.999889	0.046688	1.000978	77.502915	5.304733	0.000214	2.676302	2.676302	2.676302	0.001305	0.022606	2.830000	1.509224	0.533486	-1.534285
6511.253386	0.994886	0.046892	0.995991	77.357248	5.304588	0.000208	2.633605	2.633605	2.633605	0.001259	0.021860	2.830000	1.509280	0.533500	-1.512563
6605.044933	0.990432	0.048444	0.991616	77.213674	5.304449	0.000203	2.592036	2.592036	2.592036	0.001203	0.021148	2.830000	1.509335	0.533514	-1.491114
6700.187504	0.986887	0.051145	0.988211	77.073842	5.304315	0.000197	2.551909	2.551909	2.551909	0.001140	0.020478	2.830000	1.509387	0.533528	-1.469939
6796.700558	0.984544	0.054694	0.986062	76.939139	5.304188	0.000191	2.513463	2.513463	2.513463	0.001073	0.019851	2.830000	1.509437	0.533541	-1.449043
6894.603838	0.983604	0.058709	0.985354	76.810541	5.304068	0.000186	2.476839	2.476839	2.476839	0.001006	0.019272	2.830000	1.509485	0.533553	-1.428433
6993.917368	0.984148	0.062761	0.986147	76.688490	5.303954	0.000181	2.442065	2.442065	2.442065	0.000941	0.018737	2.830000	1.509531	0.533564	-1.408115
7094.661463	0.986126	0.066402	0.988359	76.572812	5.303846	0.000176	2.409049	2.409049	2.409049	0.000881	0.018244	2.830000	1.509574	0.533575	-1.388093
7196.856730	0.989352	0.069215	0.991770	76.462710	5.303744	0.000171	2.377586	2.377586	2.377586	0.000831	0.017787	2.830000	1.509616	0.533585	-1.368373
7300.524071	0.993517	0.070849	0.996040	76.356815	5.303646	0.000166	2.347369	2.347369	2.347369	0.000791	0.017358	2.830000	1.509656	0.533595	-1.348956
7405.684692	0.998208	0.071062	1.000734	76.253311	5.303552	0.000161	2.318019	2.318019	2.318019	0.000762	0.016949	2.830000	1.509695	0.533605	-1.329842
7512.360102	1.002948	0.069750	1.005370	76.150108	5.303460	0.000157	2.289120	2.289120	2.289120	0.000745	0.016550	2.830000	1.509732	0.533614	-1.311026
7620.572122	1.007241	0.066968	1.009465	76.045057	5.303370	0.000152	2.260256	2.260256	2.260256	0.000738	0.016154	2.830000	1.509769	0.533623	-1.292503
7730.342884	1.010626	0.062930	1.012583	75.936166	5.303281	0.000148	2.231059	2.231059	2.231059	0.000740	0.015754	2.830000	1.509805	0.533632	-1.274263
7841.694843	1.012729	0.057998	1.014388	75.821825	5.303193	0.000144	2.201244	2.201244	2.201244	0.000748	0.015344	2.830000	1.509841	0.533641	-1.256293
7954.650775	1.013311	0.052648	1.014677	75.700987	5.303104	0.000140	2.170648	2.170648	2.170648	0.000757	0.014923	2.830000	1.509876	0.533650	-1.238583
8069.233784	1.012305	0.047417	1.013415	75.573311	5.303015	0.000136	2.139248	2.139248	2.139248	0.000765	0.014490	2.830000	1.509911	0.533659	-1.221118
8185.467307	1.009834	0.042845	1.010743	75.439241	5.302927	0.000132	2.107169	2.107169	2.107169	0.000767	0.014049	2.830000	1.509946	0.533668	-1.203887
8303.375120	1.006206	0.039409	1.006978	75.300011	5.302840	0.000128	2.074670	2.074670	2.074670	0.000762	0.013606	2.830000	1.509980	0.533676	-1.186879
8422.981339	1.001886	0.037453	1.002586	75.157542	5.302754	0.000125	2.042116	2.042116	2.042116	0.000748	0.013166	2.830000	1.510013	0.533685	-1.170088
8544.310429	0.997441	0.037137	0.998132	75.014257	5.302670	0.000121	2.009933	2.009933	2.009933	0.000724	0.012739	2.830000	1.510046	0.533693	-1.153508
8667.387209	0.993472	0.038409	0.994214	74.872787	5.302590	0.000118	1.978552	1.978552	1.978552	0.000691	0.012330	2.830000	1.510078	0.533701	-1.137140
8792.236851	0.990530	0.040992	0.991378	74.735610	5.302513	0.000114	1.948351	1.948351	1.948351	0.000652	0.011947	2.830000	1.510108	0.533709	-1.120985
8918.884894	0.989036	0.044418	0.990033	74.604663	5.302440	0.000111	1.919597	1.919597	1.919597	0.000609	0.011592	2.830000	1.510137	0.533717	-1.105047
9047.357242	0.989207	0.048081	0.990375	74.481000	5.302371	0.000108	1.892405	1.892405	1.892405	0.000567	0.011266	2.830000	1.510164	0.533723	-1.089333
9177.680175	0.991016	0.051327	0.992344	74.364564	5.302306	0.000105	1.866715	1.866715	1.866715	0.000529	0.010968	2.830000	1.510191	0.533730	-1.073847
9309.880348	0.994179	0.053548	0.995620	74.254137	5.302245	0.000102	1.842299	1.842299	1.842299	0.000498	0.010692	2.830000	1.510216	0.533736	-1.058593
9443.984802	0.998188	0.054285	0.999663	74.147494	5.302186	0.000099	1.818787	1.818787	1.818787	0.000477	0.010433	2.830000	1.510240	0.533742	-1.043574
9580.020968	1.002381	0.053313	1.003798	74.041744	5.302129	0.000096	1.795725	1.795725	1.795725	0.000466	0.010182	2.830000	1.510263	0.533748	-1.028788
9718.016671	1.006046	0.050693	1.007323	73.933797	5.302073	0.000094	1.772647	1.772647	1.772647	0.000464	0.009932	2.830000	1.510286	0.533753	-1.014229
9858.000137	1.008546	0.046776	1.009630	73.820891	5.302017	0.000091	1.749150	1.749150	1.749150	0.000469	0.009676	2.830000	1.510308	0.533759	-0.999890
10000.000000	1.009432	0.042156	1.010312	73.701080	5.301962	0.000088	1.724974	1.724974	1.724974	0.000477	0.009413	2.830000	1.510331	0.533765	-0.985760
10144.045304	1.008544	0.037576	1.009244	73.573617	5.301906	0.000086	1.700043	1.700043	1.700043	0.000484	0.009141	2.830000	1.510353	0.533770	-0.971829
10290.165513	1.006053	0.033793	1.006620	73.439150	5.301850	0.000084	1.674488	1.674488	1.674488	0.000486	0.008862	2.830000	1.510375	0.533776	-0.958085
10438.390514	1.002447	0.031431	1.002939	73.299693	5.301794	0.000081	1.648626	1.648626	1.648626	0.000481	0.008582	2.830000	1.510397	0.533782	-0.944521
10588.750628	0.998453	0.030845	0.998929	73.158324	5.301740	0.000079	1.622903	1.622903	1.622903	0.000468	0.008307	2.830000	1.510418	0.533787	-0.931130
10741.276608	0.994896	0.032037	0.995412	73.018635	5.301688	0.000077	1.597801	1.597801	1.597801	0.000446	0.008044	2.830000	1.510438	0.533792	-0.917913
10895.999653	0.992533	0.034631	0.993137	72.883988	5.301639	0.000075	1.573742	1.573742	1.573742	0.000418	0.007798	2.830000	1.510458	0.533797	-0.904870
11052.951411	0.991877	0.037937	0.992602	72.756739	5.301592	0.000072	1.550993	1.550993	1.550993	0.000388	0.007573	2.830000	1.510476	0.533802	-0.892005
11212.163986	0.993073	0.041089	0.993923	72.637610	5.301548	0.000070	1.529602	1.529602	1.529602	0.000360	0.007368	2.830000	1.510494	0.533806	-0.879325
11373.669943	0.995842	0.043232	0.996780	72.525422	5.301506	0.000068	1.509379	1.509379	1.509379	0.000337	0.007180	2.830000	1.510511	0.533811	-0.866834
11537.502317	0.999522	0.043734	1.000478	72.417296	5.301466	0.000066	1.489935	1.489935	1.489935	0.000324	0.007003	2.830000	1.510527	0.533815	-0.854533
11703.694619	1.003211	0.042347	1.004105	72.309301	5.301428	0.000065	1.470770	1.470770	1.470770	0.000319	0.006831	2.830000	1.510543	0.533818	-0.842421
11872.280844	1.005981	0.039293	1.006748	72.197409	5.301390	0.000063	1.451389	1.451389	1.451389	0.000321	0.006657	2.830000	1.510558	0.533822	-0.830493
12043.295474	1.007117	0.035236	1.007733	72.078516	5.301351	0.000061	1.431431	1.431431	1.431431	0.000328	0.006477	2.830000	1.510574	0.533826	-0.818741
12216.773490	1.006320	0.031124	1.006801	71.951280	5.301313	0.000059	1.410765	1.410765	1.410765	0.000334	0.006290	2.830000	1.510589	0.533830	-0.807155
12392.750375	1.003812	0.027947	1.004201	71.816564	5.301274	0.000058	1.389526	1.389526	1.389526	0.000336	0.006098	2.830000	1.510604	0.533834	-0.795726
12571.262124	1.000302	0.026462	1.000652	71.677341	5.301236	0.000056	1.368091	1.368091	1.368091	0.000330	0.005906	2.830000	1.510619	0.533838	-0.784446
12752.345251	0.996808	0.026955	0.997173	71.537985	5.301199	0.000054	1.346968	1.346968	1.346968	0.000317	0.005719	2.830000	1.510634	0.533841	-0.773313
12936.036796	0.994371	0.029135	0.994798	71.403063	5.301164	0.000053	1.326657	1.326657	1.326657	0.000297	0.005544	2.830000	1.510648	0.533845	-0.762327
13122.374331	0.993733	0.032189	0.994254	71.275923	5.301131	0.000051	1.307494	1.307494	1.307494	0.000274	0.005384	2.830000	1.510661	0.533848	-0.751491
13311.395971	0.995091	0.035010	0.995707	71.157519	5.301100	0.000050	1.289541	1.289541	1.289541	0.000254	0.005239	2.830000	1.510673	0.533852	-0.740811
13503.140379	0.998001	0.036539	0.998670	71.045955	5.301070	0.000049	1.272562	1.272562	1.272562	0.000239	0.005106	2.830000	1.510685	0.533854	-0.730290
13697.646775	1.001490	0.036123	1.002142	70.937004	5.301042	0.000047	1.256088	1.256088	1.256088	0.000233	0.004980	2.830000	1.510697	0.533857	-0.719929
13894.954944	1.004365	0.033758	1.004932	70.825471	5.301014	0.000046	1.239568	1.239568	1.239568	0.000234	0.004854	2.830000	1.510708	0.533860	-0.709726
14095.105244	1.005614	0.030130	1.006066	70.706972	5.300986	0.000045	1.222560	1.222560	1.222560	0.000239	0.004723	2.830000	1.510719	0.533863	-0.699675
14298.138616	1.004792	0.026400	1.005139	70.579520	5.300958	0.000043	1.204885	1.204885	1.204885	0.000244	0.004586	2.830000	1.510731	0.533866	-0.689766
14504.096588	1.002209	0.023797	1.002492	70.444364	5.300930	0.000042	1.186701	1.186701	1.186701	0.000245	0.004446	2.830000	1.510742	0.533869	-0.679991
14713.021288	0.998858	0.023157	0.999126	70.305709	5.300902	0.000041	1.168448	1.168448	1.168448	0.000239	0.004306	2.830000	1.510753	0.533871	-0.670344
14924.955451	0.996058	0.024562	0.996360	70.169274	5.300875	0.000040	1.150685	1.150685	1.150685	0.000226	0.004173	2.830000	1.510763	0.533874	-0.660824
15139.942425	0.994937	0.027278	0.995311	70.040062	5.300850	0.000039	1.133871	1.133871	1.133871	0.000209	0.004050	2.830000	1.510773	0.533877	-0.651433
15358.026185	0.995957	0.030007	0.996409	69.920186	5.300827	0.000038	1.118167	1.118167	1.118167	0.000192	0.003940	2.830000	1.510783	0.533879	-0.642175
15579.251340	0.998675	0.031418	0.999169	69.807776	5.300804	0.000036	1.103368	1.103368	1.103368	0.000181	0.003839	2.830000	1.510792	0.533881	-0.633055
15803.663140	1.001892	0.030726	1.002363	69.697626	5.300783	0.000035	1.088976	1.088976	1.088976	0.000177	0.003743	2.830000	1.510800	0.533883	-0.624074
16031.307485	1.004157	0.028080	1.004549	69.583427	5.300762	0.000034	1.074415	1.074415	1.074415	0.000179	0.003646	2.830000	1.510809	0.533886	-0.615227
16262.230941	1.004422	0.024539	1.004722	69.460619	5.300740	0.000033	1.059291	1.059291	1.059291	0.000185	0.003544	2.830000	1.510817	0.533888	-0.606510
16496.480741	1.002570	0.021617	1.002803	69.328604	5.300719	0.000033	1.043577	1.043577	1.043577	0.000187	0.003438	2.830000	1.510826	0.533890	-0.597913
16734.104799	0.999514	0.020565	0.999725	69.191239	5.300698	0.000032	1.027636	1.027636	1.027636	0.000184	0.003331	2.830000	1.510834	0.533892	-0.589431
16975.151720	0.996797	0.021723	0.997034	69.055184	5.300677	0.000031	1.012047	1.012047	1.012047	0.000174	0.003228	2.830000	1.510843	0.533894	-0.581061
17219.670809	0.995823	0.024301	0.996119	68.926626	5.300658	0.000030	0.997312	0.997312	0.997312	0.000160	0.003134	2.830000	1.510850	0.533896	-0.572804
17467.712080	0.997102	0.026738	0.997460	68.807896	5.300639	0.000029	0.983595	0.983595	0.983595	0.000148	0.003050	2.830000	1.510858	0.533898	-0.564665
17719.326270	0.999926	0.027516	1.000304	68.695965	5.300622	0.000028	0.970618	0.970618	0.970618	0.000140	0.002972	2.830000	1.510865	0.533900	-0.556648
17974.564843	1.002704	0.026015	1.003041	68.583919	5.300606	0.000027	0.957808	0.957808	0.957808	0.000140	0.002896	2.830000	1.510871	0.533901	-0.548752
18233.480009	1.003834	0.022918	1.004096	68.464797	5.300589	0.000027	0.944614	0.944614	0.944614	0.000144	0.002818	2.830000	1.510878	0.533903	-0.540972
18496.124725	1.002655	0.019872	1.002852	68.335672	5.300572	0.000026	0.930825	0.930825	0.930825	0.000147	0.002735	2.830000	1.510885	0.533905	-0.533303
18762.552716	0.999895	0.018533	1.000067	68.199589	5.300555	0.000025	0.916704	0.916704	0.916704	0.000146	0.002651	2.830000	1.510891	0.533906	-0.525737
19032.818477	0.997287	0.019530	0.997479	68.064019	5.300539	0.000024	0.902834	0.902834	0.902834	0.000138	0.002570	2.830000	1.510898	0.533908	-0.518272
19306.977289	0.996507	0.022007	0.996750	67.936314	5.300523	0.000024	0.889753	0.889753	0.889753	0.000127	0.002495	2.830000	1.510904	0.533910	-0.510908
19585.085230	0.998058	0.024118	0.998350	67.818787	5.300509	0.000023	0.877604	0.877604	0.877604	0.000117	0.002428	2.830000	1.510910	0.533911	-0.503649
19867.199185	1.000878	0.024226	1.001171	67.706852	5.300495	0.000022	0.866026	0.866026	0.866026	0.000112	0.002367	2.830000	1.510915	0.533912	-0.496500
20000.000000	1.002071	0.023449	1.002346	67.654215	5.300489	0.000022	0.860651	0.860651	0.860651	0.000113	0.002338	2.830000	1.510918	0.533913	-0.493206
