Freq (hertz)	Ra (norm)	Xa (norm)	Za (norm)	SPL (dB)	Ze (ohms)	Xd (mm) 	WPhase (deg)	UPhase (deg)	CPhase (deg)	Delay (msec)	Efficiency (%)	Ein (volts)	Pin (watts)	Iin (amps)	ZePhase (deg)

10.000000	0.000114	0.012825	0.012826	57.734454	5.396996	1.338661	168.941698	168.941698	168.941698	3.017873	0.000246	2.830000	1.465428	0.524366	9.063214
10.144045	0.000117	0.013010	0.013010	57.979107	5.399802	1.338077	168.785262	168.785262	168.785262	3.015585	0.000260	2.830000	1.464143	0.524093	9.190679
10.290166	0.000121	0.013197	0.013198	58.223653	5.402688	1.337477	168.626693	168.626693	168.626693	3.013234	0.000275	2.830000	1.462824	0.523813	9.319849
10.438391	0.000124	0.013387	0.013388	58.468089	5.405658	1.336860	168.465968	168.465968	168.465968	3.010820	0.000292	2.830000	1.461468	0.523526	9.450741
10.588751	0.000128	0.013580	0.013581	58.712413	5.408714	1.336227	168.303061	168.303061	168.303061	3.008340	0.000309	2.830000	1.460076	0.523230	9.583375
10.741277	0.000132	0.013776	0.013776	58.956621	5.411857	1.335575	168.137944	168.137944	168.137944	3.005792	0.000327	2.830000	1.458646	0.522926	9.717770
10.896000	0.000136	0.013974	0.013975	59.200710	5.415091	1.334906	167.970593	167.970593	167.970593	3.003176	0.000346	2.830000	1.457177	0.522614	9.853945
11.052951	0.000139	0.014175	0.014176	59.444677	5.418419	1.334219	167.800982	167.800982	167.800982	3.000489	0.000367	2.830000	1.455669	0.522293	9.991918
11.212164	0.000144	0.014379	0.014380	59.688518	5.421842	1.333512	167.629083	167.629083	167.629083	2.997730	0.000388	2.830000	1.454120	0.521963	10.131710
11.373670	0.000148	0.014586	0.014587	59.932230	5.425364	1.332786	167.454870	167.454870	167.454870	2.994897	0.000411	2.830000	1.452530	0.521624	10.273339
11.537502	0.000152	0.014797	0.014797	60.175810	5.428987	1.332041	167.278318	167.278318	167.278318	2.991987	0.000435	2.830000	1.450897	0.521276	10.416825
11.703695	0.000156	0.015010	0.015010	60.419255	5.432714	1.331275	167.099399	167.099399	167.099399	2.989000	0.000461	2.830000	1.449221	0.520918	10.562186
11.872281	0.000161	0.015226	0.015227	60.662560	5.436549	1.330488	166.918086	166.918086	166.918086	2.985933	0.000488	2.830000	1.447500	0.520551	10.709441
12.043295	0.000166	0.015445	0.015446	60.905721	5.440494	1.329680	166.734353	166.734353	166.734353	2.982785	0.000517	2.830000	1.445733	0.520173	10.858609
12.216773	0.000170	0.015668	0.015668	61.148736	5.444553	1.328849	166.548172	166.548172	166.548172	2.979552	0.000547	2.830000	1.443919	0.519786	11.009710
12.392750	0.000175	0.015893	0.015894	61.391600	5.448729	1.327996	166.359517	166.359517	166.359517	2.976234	0.000579	2.830000	1.442058	0.519387	11.162762
12.571262	0.000180	0.016122	0.016123	61.634308	5.453024	1.327120	166.168361	166.168361	166.168361	2.972829	0.000613	2.830000	1.440147	0.518978	11.317783
12.752345	0.000186	0.016354	0.016355	61.876858	5.457443	1.326221	165.974676	165.974676	165.974676	2.969334	0.000649	2.830000	1.438186	0.518558	11.474793
12.936037	0.000191	0.016590	0.016591	62.119244	5.461989	1.325297	165.778435	165.778435	165.778435	2.965746	0.000688	2.830000	1.436174	0.518126	11.633811
13.122374	0.000197	0.016829	0.016830	62.361463	5.466666	1.324348	165.579612	165.579612	165.579612	2.962065	0.000728	2.830000	1.434110	0.517683	11.794853
13.311396	0.000202	0.017071	0.017072	62.603510	5.471477	1.323374	165.378178	165.378178	165.378178	2.958288	0.000771	2.830000	1.431991	0.517228	11.957940
13.503140	0.000208	0.017317	0.017318	62.845381	5.476426	1.322374	165.174107	165.174107	165.174107	2.954412	0.000816	2.830000	1.429818	0.516760	12.123088
13.697647	0.000214	0.017566	0.017568	63.087070	5.481517	1.321346	164.967371	164.967371	164.967371	2.950435	0.000865	2.830000	1.427588	0.516280	12.290315
13.894955	0.000220	0.017819	0.017821	63.328574	5.486755	1.320292	164.757943	164.757943	164.757943	2.946356	0.000915	2.830000	1.425301	0.515788	12.459640
14.095105	0.000227	0.018076	0.018077	63.569887	5.492143	1.319209	164.545796	164.545796	164.545796	2.942171	0.000969	2.830000	1.422955	0.515282	12.631080
14.298139	0.000233	0.018336	0.018338	63.811005	5.497685	1.318098	164.330904	164.330904	164.330904	2.937879	0.001026	2.830000	1.420549	0.514762	12.804652
14.504097	0.000240	0.018600	0.018602	64.051922	5.503387	1.316957	164.113238	164.113238	164.113238	2.933477	0.001087	2.830000	1.418081	0.514229	12.980373
14.713021	0.000247	0.018868	0.018870	64.292634	5.509252	1.315787	163.892772	163.892772	163.892772	2.928962	0.001151	2.830000	1.415551	0.513681	13.158259
14.924955	0.000254	0.019140	0.019142	64.533134	5.515285	1.314585	163.669479	163.669479	163.669479	2.924333	0.001219	2.830000	1.412957	0.513119	13.338328
15.139942	0.000262	0.019415	0.019417	64.773419	5.521491	1.313352	163.443332	163.443332	163.443332	2.919586	0.001290	2.830000	1.410297	0.512543	13.520594
15.358026	0.000269	0.019695	0.019697	65.013481	5.527875	1.312086	163.214306	163.214306	163.214306	2.914720	0.001366	2.830000	1.407570	0.511951	13.705075
15.579251	0.000277	0.019979	0.019981	65.253316	5.534441	1.310788	162.982373	162.982373	162.982373	2.909731	0.001447	2.830000	1.404775	0.511343	13.891784
15.803663	0.000285	0.020266	0.020268	65.492918	5.541196	1.309455	162.747507	162.747507	162.747507	2.904617	0.001532	2.830000	1.401911	0.510720	14.080737
16.031307	0.000293	0.020558	0.020560	65.732282	5.548144	1.308088	162.509682	162.509682	162.509682	2.899376	0.001622	2.830000	1.398975	0.510080	14.271948
16.262231	0.000302	0.020854	0.020856	65.971400	5.555291	1.306686	162.268872	162.268872	162.268872	2.894005	0.001718	2.830000	1.395968	0.509424	14.465432
16.496481	0.000311	0.021155	0.021157	66.210267	5.562642	1.305247	162.025053	162.025053	162.025053	2.888501	0.001819	2.830000	1.392886	0.508751	14.661201
16.734105	0.000320	0.021459	0.021462	66.448877	5.570204	1.303772	161.778197	161.778197	161.778197	2.882862	0.001926	2.830000	1.389729	0.508060	14.859269
16.975152	0.000329	0.021768	0.021771	66.687223	5.577981	1.302259	161.528282	161.528282	161.528282	2.877085	0.002039	2.830000	1.386495	0.507352	15.059648
17.219671	0.000338	0.022082	0.022084	66.925300	5.585981	1.300707	161.275281	161.275281	161.275281	2.871167	0.002159	2.830000	1.383182	0.506625	15.262350
17.467712	0.000348	0.022400	0.022402	67.163100	5.594210	1.299115	161.019170	161.019170	161.019170	2.865106	0.002287	2.830000	1.379790	0.505880	15.467386
17.719326	0.000358	0.022722	0.022725	67.400616	5.602673	1.297484	160.759926	160.759926	160.759926	2.858899	0.002421	2.830000	1.376317	0.505116	15.674767
17.974565	0.000369	0.023049	0.023052	67.637842	5.611378	1.295811	160.497525	160.497525	160.497525	2.852543	0.002564	2.830000	1.372761	0.504332	15.884502
18.233480	0.000379	0.023381	0.023384	67.874771	5.620332	1.294096	160.231944	160.231944	160.231944	2.846036	0.002715	2.830000	1.369121	0.503529	16.096601
18.496125	0.000390	0.023718	0.023721	68.111396	5.629540	1.292338	159.963160	159.963160	159.963160	2.839374	0.002875	2.830000	1.365396	0.502705	16.311072
18.762553	0.000402	0.024059	0.024063	68.347709	5.639012	1.290537	159.691150	159.691150	159.691150	2.832556	0.003044	2.830000	1.361583	0.501861	16.527922
19.032818	0.000413	0.024406	0.024409	68.583704	5.648753	1.288690	159.415894	159.415894	159.415894	2.825577	0.003223	2.830000	1.357682	0.500996	16.747159
19.306977	0.000425	0.024757	0.024761	68.819372	5.658772	1.286798	159.137369	159.137369	159.137369	2.818437	0.003413	2.830000	1.353690	0.500109	16.968787
19.585085	0.000438	0.025114	0.025117	69.054706	5.669076	1.284860	158.855555	158.855555	158.855555	2.811131	0.003614	2.830000	1.349607	0.499200	17.192813
19.867199	0.000451	0.025475	0.025479	69.289699	5.679673	1.282874	158.570433	158.570433	158.570433	2.803658	0.003827	2.830000	1.345431	0.498268	17.419240
20.153377	0.000464	0.025842	0.025846	69.524342	5.690572	1.280839	158.281982	158.281982	158.281982	2.796014	0.004052	2.830000	1.341161	0.497314	17.648071
20.443677	0.000477	0.026214	0.026218	69.758627	5.701781	1.278755	157.990184	157.990184	157.990184	2.788197	0.004290	2.830000	1.336795	0.496336	17.879308
20.738158	0.000491	0.026591	0.026596	69.992546	5.713309	1.276621	157.695021	157.695021	157.695021	2.780205	0.004543	2.830000	1.332332	0.495335	18.112952
21.036882	0.000505	0.026974	0.026979	70.226092	5.725164	1.274436	157.396475	157.396475	157.396475	2.772034	0.004810	2.830000	1.327770	0.494309	18.349002
21.339908	0.000520	0.027363	0.027367	70.459255	5.737357	1.272199	157.094530	157.094530	157.094530	2.763681	0.005094	2.830000	1.323108	0.493259	18.587457
21.647300	0.000535	0.027756	0.027762	70.692028	5.749895	1.269908	156.789170	156.789170	156.789170	2.755146	0.005393	2.830000	1.318345	0.492183	18.828314
21.959119	0.000550	0.028156	0.028161	70.924400	5.762789	1.267563	156.480380	156.480380	156.480380	2.746424	0.005711	2.830000	1.313479	0.491082	19.071570
22.275430	0.000566	0.028561	0.028567	71.156365	5.776049	1.265164	156.168146	156.168146	156.168146	2.737514	0.006047	2.830000	1.308509	0.489954	19.317218
22.596297	0.000583	0.028973	0.028978	71.387912	5.789685	1.262708	155.852455	155.852455	155.852455	2.728413	0.006403	2.830000	1.303434	0.488800	19.565253
22.921786	0.000600	0.029390	0.029396	71.619034	5.803708	1.260195	155.533294	155.533294	155.533294	2.719119	0.006780	2.830000	1.298252	0.487619	19.815665
23.251963	0.000617	0.029813	0.029819	71.849720	5.818128	1.257625	155.210652	155.210652	155.210652	2.709629	0.007179	2.830000	1.292963	0.486411	20.068446
23.586897	0.000635	0.030242	0.030249	72.079961	5.832957	1.254995	154.884519	154.884519	154.884519	2.699941	0.007602	2.830000	1.287566	0.485174	20.323584
23.926655	0.000653	0.030677	0.030684	72.309749	5.848205	1.252306	154.554885	154.554885	154.554885	2.690053	0.008049	2.830000	1.282058	0.483909	20.581066
24.271307	0.000672	0.031119	0.031126	72.539073	5.863885	1.249556	154.221743	154.221743	154.221743	2.679963	0.008523	2.830000	1.276440	0.482615	20.840878
24.620924	0.000692	0.031567	0.031574	72.767925	5.880008	1.246744	153.885084	153.885084	153.885084	2.669669	0.009025	2.830000	1.270709	0.481292	21.103003
24.975577	0.000712	0.032021	0.032029	72.996295	5.896587	1.243870	153.544904	153.544904	153.544904	2.659169	0.009556	2.830000	1.264866	0.479939	21.367424
25.335338	0.000733	0.032482	0.032490	73.224172	5.913635	1.240932	153.201197	153.201197	153.201197	2.648461	0.010119	2.830000	1.258909	0.478555	21.634121
25.700282	0.000754	0.032949	0.032958	73.451547	5.931164	1.237929	152.853959	152.853959	152.853959	2.637544	0.010714	2.830000	1.252838	0.477141	21.903072
26.070482	0.000776	0.033424	0.033433	73.678411	5.949189	1.234861	152.503189	152.503189	152.503189	2.626415	0.011345	2.830000	1.246651	0.475695	22.174254
26.446016	0.000798	0.033905	0.033914	73.904752	5.967722	1.231727	152.148884	152.148884	152.148884	2.615074	0.012012	2.830000	1.240349	0.474218	22.447641
26.826958	0.000821	0.034393	0.034402	74.130562	5.986778	1.228526	151.791047	151.791047	151.791047	2.603518	0.012719	2.830000	1.233930	0.472708	22.723205
27.213388	0.000845	0.034888	0.034898	74.355829	6.006372	1.225257	151.429677	151.429677	151.429677	2.591747	0.013468	2.830000	1.227393	0.471166	23.000916
27.605384	0.000870	0.035390	0.035400	74.580545	6.026518	1.221918	151.064779	151.064779	151.064779	2.579760	0.014260	2.830000	1.220740	0.469591	23.280743
28.003026	0.000895	0.035899	0.035910	74.804697	6.047232	1.218511	150.696356	150.696356	150.696356	2.567555	0.015099	2.830000	1.213968	0.467983	23.562650
28.406397	0.000921	0.036416	0.036427	75.028277	6.068529	1.215032	150.324414	150.324414	150.324414	2.555131	0.015988	2.830000	1.207078	0.466340	23.846603
28.815578	0.000948	0.036940	0.036952	75.251273	6.090426	1.211483	149.948961	149.948961	149.948961	2.542489	0.016928	2.830000	1.200070	0.464664	24.132561
29.230652	0.000975	0.037471	0.037484	75.473675	6.112940	1.207861	149.570005	149.570005	149.570005	2.529626	0.017924	2.830000	1.192943	0.462952	24.420482
29.651706	0.001003	0.038010	0.038024	75.695474	6.136087	1.204167	149.187557	149.187557	149.187557	2.516544	0.018979	2.830000	1.185698	0.461206	24.710325
30.078825	0.001032	0.038557	0.038571	75.916657	6.159886	1.200399	148.801628	148.801628	148.801628	2.503241	0.020095	2.830000	1.178335	0.459424	25.002040
30.512097	0.001062	0.039112	0.039126	76.137215	6.184354	1.196557	148.412233	148.412233	148.412233	2.489718	0.021277	2.830000	1.170853	0.457606	25.295580
30.951609	0.001093	0.039675	0.039690	76.357138	6.209510	1.192640	148.019385	148.019385	148.019385	2.475975	0.022529	2.830000	1.163254	0.455753	25.590893
31.397452	0.001125	0.040246	0.040261	76.576414	6.235373	1.188647	147.623103	147.623103	147.623103	2.462012	0.023853	2.830000	1.155537	0.453862	25.887924
31.849718	0.001158	0.040825	0.040841	76.795033	6.261963	1.184579	147.223403	147.223403	147.223403	2.447829	0.025256	2.830000	1.147704	0.451935	26.186615
32.308498	0.001191	0.041412	0.041429	77.012985	6.289300	1.180434	146.820307	146.820307	146.820307	2.433428	0.026741	2.830000	1.139754	0.449971	26.486907
32.773887	0.001226	0.042008	0.042026	77.230258	6.317406	1.176211	146.413835	146.413835	146.413835	2.418808	0.028313	2.830000	1.131689	0.447969	26.788735
33.245979	0.001261	0.042612	0.042631	77.446843	6.346300	1.171912	146.004011	146.004011	146.004011	2.403973	0.029978	2.830000	1.123510	0.445929	27.092033
33.724872	0.001298	0.043225	0.043244	77.662730	6.376007	1.167534	145.590860	145.590860	145.590860	2.388921	0.031740	2.830000	1.115218	0.443851	27.396732
34.210663	0.001335	0.043847	0.043867	77.877906	6.406547	1.163078	145.174409	145.174409	145.174409	2.373656	0.033606	2.830000	1.106813	0.441736	27.702759
34.703452	0.001374	0.044477	0.044499	78.092364	6.437946	1.158542	144.754687	144.754687	144.754687	2.358179	0.035580	2.830000	1.098298	0.439581	28.010038
35.203338	0.001414	0.045117	0.045139	78.306091	6.470226	1.153928	144.331722	144.331722	144.331722	2.342491	0.037671	2.830000	1.089673	0.437388	28.318490
35.710426	0.001455	0.045766	0.045789	78.519077	6.503412	1.149235	143.905548	143.905548	143.905548	2.326596	0.039884	2.830000	1.080940	0.435156	28.628031
36.224818	0.001497	0.046424	0.046448	78.731313	6.537531	1.144462	143.476198	143.476198	143.476198	2.310495	0.042227	2.830000	1.072102	0.432885	28.938577
36.746619	0.001541	0.047092	0.047117	78.942789	6.572607	1.139609	143.043706	143.043706	143.043706	2.294191	0.044707	2.830000	1.063160	0.430575	29.250037
37.275937	0.001585	0.047769	0.047795	79.153494	6.608669	1.134676	142.608111	142.608111	142.608111	2.277687	0.047332	2.830000	1.054115	0.428225	29.562317
37.812880	0.001631	0.048456	0.048483	79.363419	6.645744	1.129664	142.169451	142.169451	142.169451	2.260987	0.050111	2.830000	1.044971	0.425836	29.875321
38.357556	0.001679	0.049153	0.049181	79.572554	6.683861	1.124571	141.727766	141.727766	141.727766	2.244092	0.053052	2.830000	1.035729	0.423408	30.188948
38.910079	0.001727	0.049859	0.049889	79.780889	6.723049	1.119399	141.283098	141.283098	141.283098	2.227008	0.056166	2.830000	1.026392	0.420940	30.503093
39.470560	0.001777	0.050576	0.050607	79.988415	6.763339	1.114147	140.835490	140.835490	140.835490	2.209737	0.059461	2.830000	1.016962	0.418432	30.817648
40.039115	0.001829	0.051303	0.051336	80.195122	6.804762	1.108815	140.384989	140.384989	140.384989	2.192285	0.062949	2.830000	1.007443	0.415885	31.132500
40.615860	0.001882	0.052041	0.052075	80.401002	6.847351	1.103404	139.931641	139.931641	139.931641	2.174654	0.066640	2.830000	0.997837	0.413298	31.447532
41.200912	0.001937	0.052789	0.052824	80.606044	6.891139	1.097914	139.475494	139.475494	139.475494	2.156850	0.070547	2.830000	0.988147	0.410672	31.762624
41.794392	0.001993	0.053548	0.053585	80.810242	6.936161	1.092345	139.016599	139.016599	139.016599	2.138878	0.074681	2.830000	0.978376	0.408007	32.077649
42.396421	0.002051	0.054317	0.054356	81.013585	6.982451	1.086698	138.555006	138.555006	138.555006	2.120742	0.079057	2.830000	0.968528	0.405302	32.392480
43.007121	0.002110	0.055098	0.055138	81.216066	7.030047	1.080973	138.090770	138.090770	138.090770	2.102447	0.083688	2.830000	0.958606	0.402558	32.706981
43.626619	0.002171	0.055890	0.055932	81.417675	7.078987	1.075171	137.623943	137.623943	137.623943	2.083999	0.088587	2.830000	0.948614	0.399775	33.021014
44.255040	0.002234	0.056693	0.056737	81.618406	7.129309	1.069292	137.154583	137.154583	137.154583	2.065404	0.093772	2.830000	0.938556	0.396953	33.334435
44.892513	0.002299	0.057508	0.057554	81.818251	7.181055	1.063337	136.682745	136.682745	136.682745	2.046667	0.099259	2.830000	0.928434	0.394093	33.647096
45.539168	0.002366	0.058334	0.058382	82.017201	7.234265	1.057306	136.208489	136.208489	136.208489	2.027794	0.105063	2.830000	0.918254	0.391194	33.958845
46.195138	0.002434	0.059172	0.059222	82.215249	7.288983	1.051201	135.731873	135.731873	135.731873	2.008792	0.111205	2.830000	0.908019	0.388257	34.269523
46.860558	0.002505	0.060022	0.060074	82.412389	7.345254	1.045022	135.252959	135.252959	135.252959	1.989666	0.117702	2.830000	0.897734	0.385283	34.578967
47.535562	0.002577	0.060884	0.060939	82.608613	7.403123	1.038771	134.771809	134.771809	134.771809	1.970424	0.124576	2.830000	0.887403	0.382271	34.887008
48.220290	0.002652	0.061759	0.061816	82.803915	7.462638	1.032447	134.288484	134.288484	134.288484	1.951071	0.131847	2.830000	0.877030	0.379222	35.193471
48.914880	0.002729	0.062646	0.062705	82.998289	7.523848	1.026053	133.803050	133.803050	133.803050	1.931616	0.139539	2.830000	0.866620	0.376137	35.498177
49.619476	0.002808	0.063546	0.063608	83.191729	7.586804	1.019589	133.315571	133.315571	133.315571	1.912064	0.147674	2.830000	0.856178	0.373016	35.800941
50.334221	0.002889	0.064458	0.064523	83.384228	7.651559	1.013056	132.826112	132.826112	132.826112	1.892424	0.156278	2.830000	0.845707	0.369859	36.101569
51.059262	0.002973	0.065384	0.065451	83.575781	7.718168	1.006457	132.334740	132.334740	132.334740	1.872701	0.165377	2.830000	0.835214	0.366667	36.399865
51.794747	0.003059	0.066322	0.066393	83.766384	7.786687	0.999791	131.841522	131.841522	131.841522	1.852904	0.174999	2.830000	0.824703	0.363441	36.695625
52.540826	0.003148	0.067275	0.067348	83.956031	7.857174	0.993060	131.346526	131.346526	131.346526	1.833041	0.185173	2.830000	0.814179	0.360180	36.988636
53.297652	0.003239	0.068240	0.068317	84.144717	7.929690	0.986266	130.849820	130.849820	130.849820	1.813118	0.195930	2.830000	0.803647	0.356887	37.278680
54.065379	0.003333	0.069220	0.069300	84.332439	8.004299	0.979410	130.351473	130.351473	130.351473	1.793143	0.207302	2.830000	0.793112	0.353560	37.565534
54.844166	0.003430	0.070213	0.070297	84.519191	8.081064	0.972494	129.851554	129.851554	129.851554	1.773124	0.219323	2.830000	0.782580	0.350201	37.848964
55.634170	0.003529	0.071221	0.071308	84.704972	8.160054	0.965519	129.350133	129.350133	129.350133	1.753069	0.232030	2.830000	0.772054	0.346811	38.128729
56.435554	0.003631	0.072243	0.072334	84.889776	8.241338	0.958486	128.847279	128.847279	128.847279	1.732986	0.245459	2.830000	0.761542	0.343391	38.404581
57.248482	0.003737	0.073279	0.073375	85.073601	8.324990	0.951399	128.343063	128.343063	128.343063	1.712882	0.259649	2.830000	0.751048	0.339940	38.676263
58.073119	0.003845	0.074331	0.074430	85.256444	8.411084	0.944257	127.837553	127.837553	127.837553	1.692765	0.274643	2.830000	0.740576	0.336461	38.943510
58.909635	0.003956	0.075397	0.075501	85.438303	8.499699	0.937063	127.330822	127.330822	127.330822	1.672643	0.290484	2.830000	0.730134	0.332953	39.206046
59.758201	0.004071	0.076478	0.076586	85.619175	8.590916	0.929819	126.822937	126.822937	126.822937	1.652524	0.307217	2.830000	0.719725	0.329418	39.463586
60.618990	0.004189	0.077575	0.077688	85.799059	8.684819	0.922526	126.313970	126.313970	126.313970	1.632416	0.324890	2.830000	0.709356	0.325856	39.715836
61.492178	0.004310	0.078687	0.078805	85.977952	8.781495	0.915187	125.803990	125.803990	125.803990	1.612326	0.343552	2.830000	0.699032	0.322269	39.962490
62.377944	0.004435	0.079815	0.079939	86.155853	8.881035	0.907803	125.293066	125.293066	125.293066	1.592263	0.363257	2.830000	0.688757	0.318657	40.203232
63.276469	0.004564	0.080960	0.081088	86.332762	8.983534	0.900376	124.781266	124.781266	124.781266	1.572233	0.384058	2.830000	0.678537	0.315021	40.437732
64.187937	0.004696	0.082120	0.082254	86.508677	9.089089	0.892909	124.268661	124.268661	124.268661	1.552245	0.406013	2.830000	0.668379	0.311362	40.665651
65.112534	0.004832	0.083297	0.083437	86.683598	9.197802	0.885402	123.755317	123.755317	123.755317	1.532305	0.429181	2.830000	0.658285	0.307682	40.886635
66.050449	0.004972	0.084490	0.084636	86.857525	9.309779	0.877859	123.241301	123.241301	123.241301	1.512422	0.453624	2.830000	0.648263	0.303981	41.100315
67.001875	0.005116	0.085701	0.085853	87.030458	9.425129	0.870281	122.726681	122.726681	122.726681	1.492602	0.479407	2.830000	0.638317	0.300261	41.306310
67.967006	0.005264	0.086928	0.087088	87.202397	9.543965	0.862670	122.211522	122.211522	122.211522	1.472853	0.506596	2.830000	0.628452	0.296522	41.504221
68.946038	0.005417	0.088173	0.088339	87.373342	9.666407	0.855029	121.695890	121.695890	121.695890	1.453181	0.535263	2.830000	0.618673	0.292766	41.693637
69.939174	0.005574	0.089436	0.089609	87.543294	9.792576	0.847359	121.179849	121.179849	121.179849	1.433594	0.565480	2.830000	0.608985	0.288994	41.874125
70.946615	0.005735	0.090716	0.090897	87.712255	9.922601	0.839663	120.663462	120.663462	120.663462	1.414098	0.597321	2.830000	0.599393	0.285207	42.045237
71.968567	0.005901	0.092015	0.092204	87.880225	10.056612	0.831942	120.146791	120.146791	120.146791	1.394700	0.630865	2.830000	0.589902	0.281407	42.206504
73.005241	0.006072	0.093332	0.093529	88.047207	10.194747	0.824199	119.629898	119.629898	119.629898	1.375405	0.666193	2.830000	0.580517	0.277594	42.357438
74.056847	0.006248	0.094667	0.094873	88.213200	10.337149	0.816436	119.112844	119.112844	119.112844	1.356221	0.703387	2.830000	0.571242	0.273770	42.497529
75.123601	0.006429	0.096021	0.096236	88.378209	10.483963	0.808656	118.595686	118.595686	118.595686	1.337153	0.742533	2.830000	0.562082	0.269936	42.626244
76.205721	0.006615	0.097395	0.097619	88.542233	10.635342	0.800859	118.078484	118.078484	118.078484	1.318207	0.783719	2.830000	0.553041	0.266094	42.743026
77.303429	0.006806	0.098788	0.099022	88.705277	10.791443	0.793048	117.561294	117.561294	117.561294	1.299388	0.827037	2.830000	0.544123	0.262245	42.847293
78.416948	0.007003	0.100200	0.100445	88.867341	10.952429	0.785226	117.044171	117.044171	117.044171	1.280702	0.872577	2.830000	0.535334	0.258390	42.938435
79.546508	0.007206	0.101632	0.101888	89.028430	11.118467	0.777395	116.527169	116.527169	116.527169	1.262154	0.920436	2.830000	0.526676	0.254531	43.015812
80.692338	0.007415	0.103085	0.103351	89.188544	11.289731	0.769556	116.010342	116.010342	116.010342	1.243749	0.970710	2.830000	0.518155	0.250670	43.078758
81.854673	0.007629	0.104558	0.104836	89.347688	11.466398	0.761712	115.493742	115.493742	115.493742	1.225491	1.023497	2.830000	0.509773	0.246808	43.126570
83.033751	0.007850	0.106051	0.106341	89.505863	11.648650	0.753864	114.977417	114.977417	114.977417	1.207386	1.078896	2.830000	0.501535	0.242947	43.158514
84.229813	0.008077	0.107566	0.107869	89.663074	11.836675	0.746015	114.461418	114.461418	114.461418	1.189436	1.137008	2.830000	0.493444	0.239087	43.173819
85.443104	0.008311	0.109101	0.109418	89.819322	12.030664	0.738168	113.945790	113.945790	113.945790	1.171647	1.197934	2.830000	0.485505	0.235232	43.171676
86.673872	0.008551	0.110659	0.110989	89.974612	12.230811	0.730322	113.430582	113.430582	113.430582	1.154021	1.261776	2.830000	0.477720	0.231383	43.151238
87.922369	0.008799	0.112238	0.112582	90.128947	12.437314	0.722482	112.915836	112.915836	112.915836	1.136563	1.328635	2.830000	0.470092	0.227541	43.111612
89.188849	0.009053	0.113839	0.114198	90.282330	12.650372	0.714648	112.401597	112.401597	112.401597	1.119276	1.398612	2.830000	0.462626	0.223709	43.051865
90.473572	0.009315	0.115463	0.115838	90.434764	12.870187	0.706823	111.887905	111.887905	111.887905	1.102162	1.471806	2.830000	0.455324	0.219888	42.971016
91.776802	0.009585	0.117109	0.117500	90.586254	13.096958	0.699008	111.374802	111.374802	111.374802	1.085224	1.548315	2.830000	0.448188	0.216081	42.868036
93.098803	0.009862	0.118778	0.119187	90.736801	13.330886	0.691206	110.862326	110.862326	110.862326	1.068466	1.628233	2.830000	0.441223	0.212289	42.741845
94.439848	0.010147	0.120470	0.120897	90.886411	13.572166	0.683418	110.350515	110.350515	110.350515	1.051888	1.711654	2.830000	0.434430	0.208515	42.591310
95.800210	0.010440	0.122187	0.122632	91.035085	13.820987	0.675646	109.839405	109.839405	109.839405	1.035494	1.798666	2.830000	0.427812	0.204761	42.415246
97.180167	0.010742	0.123926	0.124391	91.182829	14.077533	0.667892	109.329031	109.329031	109.329031	1.019285	1.889351	2.830000	0.421371	0.201030	42.212411
98.580001	0.011053	0.125691	0.126176	91.329645	14.341973	0.660157	108.819427	108.819427	108.819427	1.003263	1.983788	2.830000	0.415110	0.197323	41.981504
100.000000	0.011372	0.127479	0.127985	91.475536	14.614464	0.652443	108.310625	108.310625	108.310625	0.987429	2.082048	2.830000	0.409032	0.193644	41.721170
101.440453	0.011701	0.129293	0.129821	91.620506	14.895145	0.644752	107.802655	107.802655	107.802655	0.971784	2.184197	2.830000	0.403137	0.189995	41.429991
102.901655	0.012039	0.131131	0.131683	91.764559	15.184128	0.637086	107.295548	107.295548	107.295548	0.956329	2.290290	2.830000	0.397429	0.186379	41.106494
104.383905	0.012387	0.132995	0.133571	91.907698	15.481499	0.629445	106.789333	106.789333	106.789333	0.941065	2.400374	2.830000	0.391909	0.182799	40.749146
105.887506	0.012745	0.134885	0.135486	92.049925	15.787308	0.621832	106.284035	106.284035	106.284035	0.925992	2.514485	2.830000	0.386579	0.179258	40.356360
107.412766	0.013113	0.136801	0.137428	92.191244	16.101561	0.614247	105.779683	105.779683	105.779683	0.911111	2.632650	2.830000	0.381440	0.175759	39.926496
108.959997	0.013492	0.138743	0.139397	92.331659	16.424215	0.606694	105.276301	105.276301	105.276301	0.896422	2.754881	2.830000	0.376493	0.172307	39.457865
110.529514	0.013882	0.140712	0.141395	92.471171	16.755165	0.599171	104.773914	104.773914	104.773914	0.881925	2.881179	2.830000	0.371742	0.168903	38.948737
112.121640	0.014282	0.142708	0.143421	92.609784	17.094235	0.591682	104.272545	104.272545	104.272545	0.867618	3.011531	2.830000	0.367185	0.165553	38.397348
113.736699	0.014695	0.144731	0.145475	92.747500	17.441169	0.584228	103.772215	103.772215	103.772215	0.853503	3.145908	2.830000	0.362826	0.162260	37.801911
115.375023	0.015119	0.146783	0.147559	92.884322	17.795615	0.576809	103.272948	103.272948	103.272948	0.839578	3.284266	2.830000	0.358664	0.159028	37.160629
117.036946	0.015555	0.148862	0.149672	93.020253	18.157112	0.569427	102.774763	102.774763	102.774763	0.825843	3.426543	2.830000	0.354702	0.155862	36.471710
118.722808	0.016004	0.150970	0.151816	93.155294	18.525075	0.562083	102.277680	102.277680	102.277680	0.812296	3.572664	2.830000	0.350939	0.152766	35.733389
120.432955	0.016466	0.153106	0.153989	93.289448	18.898782	0.554779	101.781720	101.781720	101.781720	0.798937	3.722532	2.830000	0.347377	0.149745	34.943952
122.167735	0.016941	0.155272	0.156193	93.422717	19.277357	0.547515	101.286900	101.286900	101.286900	0.785764	3.876036	2.830000	0.344016	0.146804	34.101760
123.927504	0.017430	0.157467	0.158428	93.555103	19.659752	0.540292	100.793239	100.793239	100.793239	0.772776	4.033044	2.830000	0.340857	0.143949	33.205287
125.712621	0.017933	0.159692	0.160695	93.686608	20.044736	0.533112	100.300755	100.300755	100.300755	0.759971	4.193407	2.830000	0.337900	0.141184	32.253151
127.523453	0.018450	0.161947	0.162994	93.817232	20.430878	0.525975	99.809465	99.809465	99.809465	0.747347	4.356959	2.830000	0.335146	0.138516	31.244164
129.360368	0.018982	0.164232	0.165325	93.946977	20.816541	0.518882	99.319386	99.319386	99.319386	0.734904	4.523516	2.830000	0.332595	0.135950	30.177369
131.223743	0.019529	0.166548	0.167689	94.075845	21.199866	0.511835	98.830535	98.830535	98.830535	0.722638	4.692875	2.830000	0.330248	0.133491	29.052101
133.113960	0.020092	0.168896	0.170087	94.203836	21.578779	0.504834	98.342929	98.342929	98.342929	0.710549	4.864819	2.830000	0.328104	0.131147	27.868033
135.031404	0.020671	0.171275	0.172518	94.330952	21.950987	0.497880	97.856584	97.856584	97.856584	0.698633	5.039113	2.830000	0.326164	0.128924	26.625236
136.976468	0.021266	0.173686	0.174983	94.457192	22.313995	0.490973	97.371516	97.371516	97.371516	0.686889	5.215511	2.830000	0.324427	0.126826	25.324238
138.949549	0.021879	0.176130	0.177483	94.582558	22.665120	0.484115	96.887743	96.887743	96.887743	0.675315	5.393749	2.830000	0.322894	0.124861	23.966077
140.951052	0.022509	0.178606	0.180018	94.707049	23.001528	0.477306	96.405281	96.405281	96.405281	0.663907	5.573555	2.830000	0.321564	0.123035	22.552350
142.981386	0.023157	0.181115	0.182589	94.830666	23.320271	0.470547	95.924146	95.924146	95.924146	0.652665	5.754646	2.830000	0.320437	0.121354	21.085265
145.040966	0.023824	0.183657	0.185196	94.953408	23.618341	0.463839	95.444356	95.444356	95.444356	0.641585	5.936728	2.830000	0.319513	0.119822	19.567667
147.130213	0.024509	0.186233	0.187839	95.075276	23.892734	0.457181	94.965928	94.965928	94.965928	0.630664	6.119503	2.830000	0.318791	0.118446	18.003065
149.249555	0.025214	0.188843	0.190519	95.196269	24.140519	0.450575	94.488881	94.488881	94.488881	0.619901	6.302668	2.830000	0.318271	0.117230	16.395630
151.399424	0.025940	0.191488	0.193237	95.316385	24.358921	0.444022	94.013232	94.013232	94.013232	0.609292	6.485916	2.830000	0.317952	0.116179	14.750182
153.580262	0.026685	0.194168	0.195993	95.435625	24.545398	0.437521	93.539000	93.539000	93.539000	0.598835	6.668939	2.830000	0.317834	0.115297	13.072152
155.792513	0.027453	0.196882	0.198787	95.553987	24.697727	0.431073	93.066206	93.066206	93.066206	0.588527	6.851432	2.830000	0.317915	0.114585	11.367519
158.036631	0.028242	0.199633	0.201620	95.671470	24.814076	0.424680	92.594870	92.594870	92.594870	0.578366	7.033093	2.830000	0.318196	0.114048	9.642734
160.313075	0.029053	0.202419	0.204493	95.788073	24.893071	0.418340	92.125012	92.125012	92.125012	0.568349	7.213623	2.830000	0.318675	0.113686	7.904611
162.622309	0.029888	0.205241	0.207406	95.903793	24.933844	0.412054	91.656654	91.656654	91.656654	0.558472	7.392734	2.830000	0.319351	0.113500	6.160214
164.964807	0.030746	0.208100	0.210359	96.018631	24.936066	0.405823	91.189820	91.189820	91.189820	0.548734	7.570144	2.830000	0.320224	0.113490	4.416728
167.341048	0.031629	0.210996	0.213353	96.132582	24.899961	0.399648	90.724534	90.724534	90.724534	0.539132	7.745583	2.830000	0.321291	0.113655	2.681319
169.751517	0.032536	0.213929	0.216389	96.245647	24.826290	0.393528	90.260820	90.260820	90.260820	0.529662	7.918794	2.830000	0.322552	0.113992	0.961005
172.196708	0.033470	0.216900	0.219467	96.357821	24.716323	0.387464	89.798705	89.798705	89.798705	0.520322	8.089533	2.830000	0.324006	0.114499	-0.737474
174.677121	0.034430	0.219909	0.222587	96.469104	24.571791	0.381456	89.338217	89.338217	89.338217	0.511110	8.257570	2.830000	0.325651	0.115173	-2.407768
177.193263	0.035417	0.222956	0.225751	96.579492	24.394820	0.375504	88.879382	88.879382	88.879382	0.502022	8.422693	2.830000	0.327486	0.116008	-4.044019
179.745648	0.036432	0.226041	0.228959	96.688983	24.187855	0.369608	88.422233	88.422233	88.422233	0.493057	8.584705	2.830000	0.329509	0.117001	-5.640934
182.334800	0.037475	0.229166	0.232210	96.797574	23.953587	0.363770	87.966800	87.966800	87.966800	0.484210	8.743428	2.830000	0.331719	0.118145	-7.193843
184.961247	0.038549	0.232330	0.235507	96.905263	23.694862	0.357988	87.513115	87.513115	87.513115	0.475480	8.898700	2.830000	0.334114	0.119435	-8.698730
187.625527	0.039652	0.235534	0.238849	97.012047	23.414613	0.352263	87.061214	87.061214	87.061214	0.466864	9.050379	2.830000	0.336692	0.120865	-10.152247
190.328185	0.040787	0.238778	0.242236	97.117922	23.115784	0.346595	86.611131	86.611131	86.611131	0.458359	9.198342	2.830000	0.339451	0.122427	-11.551703
193.069773	0.041954	0.242062	0.245671	97.222886	22.801266	0.340985	86.162906	86.162906	86.162906	0.449964	9.342480	2.830000	0.342390	0.124116	-12.895044
195.850852	0.043153	0.245387	0.249152	97.326934	22.473850	0.335432	85.716575	85.716575	85.716575	0.441675	9.482707	2.830000	0.345506	0.125924	-14.180815
198.671992	0.044387	0.248752	0.252681	97.430065	22.136182	0.329937	85.272181	85.272181	85.272181	0.433489	9.618950	2.830000	0.348797	0.127845	-15.408111
201.533769	0.045655	0.252159	0.256258	97.532275	21.790735	0.324499	84.829766	84.829766	84.829766	0.425406	9.751158	2.830000	0.352262	0.129872	-16.576529
204.436768	0.046958	0.255607	0.259884	97.633560	21.439785	0.319119	84.389374	84.389374	84.389374	0.417421	9.879291	2.830000	0.355897	0.131998	-17.686108
207.381584	0.048299	0.259097	0.263560	97.733918	21.085403	0.313797	83.951051	83.951051	83.951051	0.409534	10.003328	2.830000	0.359701	0.134216	-18.737274
210.368818	0.049676	0.262628	0.267285	97.833343	20.729449	0.308532	83.514845	83.514845	83.514845	0.401741	10.123262	2.830000	0.363671	0.136521	-19.730784
213.399082	0.051093	0.266202	0.271061	97.931835	20.373571	0.303326	83.080806	83.080806	83.080806	0.394041	10.239100	2.830000	0.367804	0.138905	-20.667669
216.472995	0.052549	0.269819	0.274888	98.029387	20.019217	0.298177	82.648985	82.648985	82.648985	0.386432	10.350861	2.830000	0.372097	0.141364	-21.549188
219.591187	0.054046	0.273478	0.278767	98.125999	19.667641	0.293085	82.219436	82.219436	82.219436	0.378910	10.458577	2.830000	0.376549	0.143891	-22.376782
222.754295	0.055584	0.277180	0.282699	98.221665	19.319917	0.288052	81.792215	81.792215	81.792215	0.371476	10.562291	2.830000	0.381156	0.146481	-23.152028
225.962966	0.057166	0.280925	0.286683	98.316383	18.976955	0.283076	81.367378	81.367378	81.367378	0.364126	10.662056	2.830000	0.385915	0.149128	-23.876610
229.217857	0.058792	0.284714	0.290721	98.410150	18.639510	0.278158	80.944986	80.944986	80.944986	0.356859	10.757933	2.830000	0.390823	0.151828	-24.552281
232.519632	0.060462	0.288546	0.294813	98.502961	18.308203	0.273298	80.525099	80.525099	80.525099	0.349673	10.849992	2.830000	0.395878	0.154576	-25.180841
235.868968	0.062180	0.292421	0.298959	98.594814	17.983533	0.268495	80.107780	80.107780	80.107780	0.342566	10.938310	2.830000	0.401075	0.157366	-25.764110
239.266550	0.063945	0.296341	0.303161	98.685707	17.665891	0.263749	79.693095	79.693095	79.693095	0.335536	11.022970	2.830000	0.406412	0.160196	-26.303912
242.713072	0.065759	0.300304	0.307419	98.775635	17.355573	0.259061	79.281110	79.281110	79.281110	0.328583	11.104060	2.830000	0.411885	0.163060	-26.802059
246.209240	0.067623	0.304311	0.311734	98.864596	17.052793	0.254431	78.871895	78.871895	78.871895	0.321705	11.181674	2.830000	0.417491	0.165955	-27.260335
249.755769	0.069538	0.308363	0.316106	98.952587	16.757695	0.249857	78.465521	78.465521	78.465521	0.314900	11.255906	2.830000	0.423226	0.168878	-27.680491
253.353383	0.071507	0.312458	0.320536	99.039605	16.470360	0.245341	78.062060	78.062060	78.062060	0.308166	11.326857	2.830000	0.429087	0.171824	-28.064235
257.002820	0.073530	0.316597	0.325024	99.125648	16.190818	0.240882	77.661586	77.661586	77.661586	0.301504	11.394627	2.830000	0.435070	0.174790	-28.413222
260.704825	0.075608	0.320781	0.329571	99.210714	15.919055	0.236479	77.264177	77.264177	77.264177	0.294911	11.459321	2.830000	0.441171	0.177774	-28.729059
264.460155	0.077743	0.325009	0.334178	99.294800	15.655019	0.232134	76.869910	76.869910	76.869910	0.288386	11.521042	2.830000	0.447386	0.180773	-29.013293
268.269580	0.079938	0.329281	0.338845	99.377905	15.398631	0.227845	76.478866	76.478866	76.478866	0.281928	11.579895	2.830000	0.453712	0.183783	-29.267416
272.133877	0.082192	0.333597	0.343573	99.460026	15.149783	0.223612	76.091126	76.091126	76.091126	0.275537	11.635983	2.830000	0.460144	0.186801	-29.492858
276.053838	0.084508	0.337957	0.348363	99.541162	14.908348	0.219435	75.706774	75.706774	75.706774	0.269211	11.689412	2.830000	0.466679	0.189827	-29.690994
280.030263	0.086887	0.342361	0.353214	99.621311	14.674184	0.215315	75.325894	75.325894	75.325894	0.262950	11.740284	2.830000	0.473311	0.192856	-29.863137
284.063968	0.089330	0.346808	0.358128	99.700472	14.447135	0.211251	74.948574	74.948574	74.948574	0.256752	11.788700	2.830000	0.480038	0.195887	-30.010547
288.155776	0.091841	0.351299	0.363106	99.778644	14.227036	0.207242	74.574902	74.574902	74.574902	0.250618	11.834762	2.830000	0.486855	0.198917	-30.134423
292.306525	0.094419	0.355833	0.368147	99.855826	14.013715	0.203289	74.204967	74.204967	74.204967	0.244546	11.878568	2.830000	0.493757	0.201945	-30.235914
296.517063	0.097067	0.360410	0.373253	99.932018	13.806995	0.199391	73.838860	73.838860	73.838860	0.238535	11.920215	2.830000	0.500740	0.204969	-30.316114
300.788252	0.099787	0.365030	0.378423	100.007220	13.606697	0.195549	73.476674	73.476674	73.476674	0.232586	11.959797	2.830000	0.507800	0.207986	-30.376068
305.120965	0.102579	0.369692	0.383659	100.081431	13.412638	0.191761	73.118503	73.118503	73.118503	0.226698	11.997406	2.830000	0.514932	0.210995	-30.416770
309.516090	0.105448	0.374396	0.388962	100.154651	13.224637	0.188028	72.764441	72.764441	72.764441	0.220870	12.033133	2.830000	0.522133	0.213995	-30.439171
313.974523	0.108393	0.379141	0.394331	100.226882	13.042513	0.184349	72.414585	72.414585	72.414585	0.215102	12.067063	2.830000	0.529396	0.216983	-30.444174
318.497179	0.111416	0.383927	0.399767	100.298123	12.866088	0.180724	72.069032	72.069032	72.069032	0.209393	12.099282	2.830000	0.536719	0.219958	-30.432641
323.084981	0.114521	0.388754	0.405271	100.368377	12.695185	0.177154	71.727881	71.727881	71.727881	0.203744	12.129872	2.830000	0.544096	0.222919	-30.405394
327.738869	0.117708	0.393620	0.410843	100.437643	12.529631	0.173637	71.391230	71.391230	71.391230	0.198154	12.158910	2.830000	0.551524	0.225865	-30.363216
332.459793	0.120980	0.398526	0.416484	100.505925	12.369256	0.170173	71.059179	71.059179	71.059179	0.192624	12.186475	2.830000	0.558996	0.228793	-30.306853
337.248720	0.124339	0.403470	0.422195	100.573223	12.213894	0.166762	70.731830	70.731830	70.731830	0.187152	12.212639	2.830000	0.566509	0.231703	-30.237018
342.106630	0.127786	0.408452	0.427975	100.639540	12.063383	0.163405	70.409284	70.409284	70.409284	0.181738	12.237474	2.830000	0.574059	0.234594	-30.154387
347.034515	0.131324	0.413471	0.433825	100.704879	11.917566	0.160099	70.091643	70.091643	70.091643	0.176384	12.261047	2.830000	0.581641	0.237465	-30.059610
352.033384	0.134955	0.418526	0.439746	100.769243	11.776289	0.156846	69.779010	69.779010	69.779010	0.171088	12.283424	2.830000	0.589249	0.240313	-29.953304
357.104260	0.138681	0.423616	0.445739	100.832633	11.639405	0.153645	69.471487	69.471487	69.471487	0.165850	12.304668	2.830000	0.596881	0.243140	-29.836058
362.248179	0.142505	0.428740	0.451802	100.895055	11.506768	0.150495	69.169179	69.169179	69.169179	0.160672	12.324839	2.830000	0.604531	0.245942	-29.708435
367.466194	0.146427	0.433897	0.457938	100.956511	11.378239	0.147397	68.872190	68.872190	68.872190	0.155552	12.343995	2.830000	0.612195	0.248720	-29.570973
372.759372	0.150452	0.439086	0.464146	101.017007	11.253684	0.144349	68.580622	68.580622	68.580622	0.150490	12.362191	2.830000	0.619868	0.251473	-29.424185
378.128796	0.154580	0.444305	0.470427	101.076545	11.132972	0.141352	68.294581	68.294581	68.294581	0.145488	12.379481	2.830000	0.627547	0.254200	-29.268562
383.575563	0.158814	0.449553	0.476781	101.135131	11.015976	0.138405	68.014170	68.014170	68.014170	0.140545	12.395915	2.830000	0.635227	0.256900	-29.104574
389.100789	0.163157	0.454830	0.483208	101.192769	10.902576	0.135507	67.739494	67.739494	67.739494	0.135661	12.411542	2.830000	0.642903	0.259572	-28.932668
394.705603	0.167611	0.460132	0.489709	101.249465	10.792653	0.132660	67.470656	67.470656	67.470656	0.130836	12.426408	2.830000	0.650572	0.262215	-28.753274
400.391152	0.172179	0.465459	0.496284	101.305225	10.686094	0.129861	67.207760	67.207760	67.207760	0.126071	12.440556	2.830000	0.658229	0.264830	-28.566802
406.158599	0.176861	0.470810	0.502933	101.360054	10.582789	0.127110	66.950909	66.950909	66.950909	0.121365	12.454031	2.830000	0.665871	0.267415	-28.373644
412.009123	0.181662	0.476181	0.509656	101.413959	10.482634	0.124408	66.700207	66.700207	66.700207	0.116719	12.466870	2.830000	0.673493	0.269970	-28.174179
417.943921	0.186583	0.481572	0.516454	101.466945	10.385526	0.121754	66.455756	66.455756	66.455756	0.112133	12.479114	2.830000	0.681091	0.272495	-27.968764
423.964207	0.191627	0.486980	0.523326	101.519019	10.291367	0.119147	66.217658	66.217658	66.217658	0.107607	12.490798	2.830000	0.688662	0.274988	-27.757745
430.071212	0.196797	0.492403	0.530274	101.570189	10.200063	0.116587	65.986014	65.986014	65.986014	0.103141	12.501959	2.830000	0.696202	0.277449	-27.541452
436.266186	0.202094	0.497840	0.537296	101.620462	10.111522	0.114074	65.760926	65.760926	65.760926	0.098736	12.512628	2.830000	0.703707	0.279879	-27.320203
442.550395	0.207522	0.503287	0.544392	101.669844	10.025656	0.111606	65.542492	65.542492	65.542492	0.094391	12.522838	2.830000	0.711174	0.282276	-27.094299
448.925126	0.213082	0.508742	0.551564	101.718344	9.942381	0.109184	65.330812	65.330812	65.330812	0.090108	12.532619	2.830000	0.718600	0.284640	-26.864032
455.391681	0.218778	0.514203	0.558810	101.765970	9.861615	0.106808	65.125984	65.125984	65.125984	0.085885	12.542001	2.830000	0.725980	0.286971	-26.629680
461.951385	0.224611	0.519667	0.566131	101.812730	9.783279	0.104476	64.928105	64.928105	64.928105	0.081723	12.551010	2.830000	0.733312	0.289269	-26.391510
468.605578	0.230585	0.525131	0.573526	101.858631	9.707298	0.102188	64.737271	64.737271	64.737271	0.077623	12.559674	2.830000	0.740592	0.291533	-26.149778
475.355621	0.236702	0.530592	0.580995	101.903684	9.633598	0.099944	64.553578	64.553578	64.553578	0.073584	12.568016	2.830000	0.747818	0.293764	-25.904729
482.202895	0.242963	0.536047	0.588538	101.947896	9.562108	0.097743	64.377118	64.377118	64.377118	0.069607	12.576062	2.830000	0.754987	0.295960	-25.656598
489.148802	0.249372	0.541493	0.596155	101.991277	9.492761	0.095585	64.207985	64.207985	64.207985	0.065691	12.583834	2.830000	0.762095	0.298122	-25.405611
496.194760	0.255931	0.546926	0.603845	102.033836	9.425491	0.093469	64.046270	64.046270	64.046270	0.061837	12.591353	2.830000	0.769140	0.300250	-25.151983
503.342213	0.262643	0.552343	0.611608	102.075582	9.360235	0.091395	63.892062	63.892062	63.892062	0.058045	12.598642	2.830000	0.776120	0.302343	-24.895922
510.592621	0.269509	0.557740	0.619443	102.116525	9.296931	0.089362	63.745450	63.745450	63.745450	0.054314	12.605719	2.830000	0.783032	0.304402	-24.637626
517.947468	0.276533	0.563113	0.627349	102.156675	9.235521	0.087371	63.606521	63.606521	63.606521	0.050646	12.612604	2.830000	0.789873	0.306426	-24.377284
525.408258	0.283716	0.568458	0.635326	102.196041	9.175948	0.085419	63.475361	63.475361	63.475361	0.047040	12.619315	2.830000	0.796641	0.308415	-24.115079
532.976517	0.291060	0.573772	0.643374	102.234634	9.118157	0.083507	63.352052	63.352052	63.352052	0.043495	12.625870	2.830000	0.803335	0.310370	-23.851184
540.653794	0.298569	0.579048	0.651491	102.272463	9.062096	0.081634	63.236677	63.236677	63.236677	0.040013	12.632285	2.830000	0.809951	0.312290	-23.585767
548.441658	0.306243	0.584284	0.659676	102.309540	9.007713	0.079800	63.129317	63.129317	63.129317	0.036592	12.638577	2.830000	0.816489	0.314175	-23.318987
556.341702	0.314085	0.589474	0.667929	102.345874	8.954958	0.078004	63.030050	63.030050	63.030050	0.033234	12.644762	2.830000	0.822946	0.316026	-23.050996
564.355543	0.322096	0.594613	0.676248	102.381476	8.903786	0.076246	62.938954	62.938954	62.938954	0.029937	12.650853	2.830000	0.829320	0.317842	-22.781941
572.484820	0.330280	0.599696	0.684632	102.416357	8.854149	0.074525	62.856103	62.856103	62.856103	0.026702	12.656866	2.830000	0.835610	0.319624	-22.511962
580.731195	0.338637	0.604718	0.693080	102.450527	8.806003	0.072841	62.781570	62.781570	62.781570	0.023529	12.662815	2.830000	0.841815	0.321372	-22.241191
589.096355	0.347169	0.609674	0.701590	102.483997	8.759306	0.071192	62.715427	62.715427	62.715427	0.020417	12.668712	2.830000	0.847933	0.323085	-21.969755
597.582011	0.355878	0.614557	0.710161	102.516778	8.714016	0.069580	62.657742	62.657742	62.657742	0.017367	12.674571	2.830000	0.853963	0.324764	-21.697777
606.189899	0.364764	0.619362	0.718792	102.548882	8.670093	0.068002	62.608584	62.608584	62.608584	0.014378	12.680405	2.830000	0.859903	0.326409	-21.425372
614.921780	0.373830	0.624083	0.727481	102.580318	8.627500	0.066458	62.568016	62.568016	62.568016	0.011450	12.686226	2.830000	0.865752	0.328021	-21.152651
623.779440	0.383077	0.628712	0.736225	102.611098	8.586198	0.064949	62.536102	62.536102	62.536102	0.008583	12.692045	2.830000	0.871510	0.329599	-20.879719
632.764690	0.392504	0.633245	0.745023	102.641234	8.546152	0.063473	62.512903	62.512903	62.512903	0.005778	12.697875	2.830000	0.877176	0.331143	-20.606676
641.879368	0.402114	0.637674	0.753873	102.670735	8.507327	0.062030	62.498476	62.498476	62.498476	0.003032	12.703726	2.830000	0.882748	0.332654	-20.333617
651.125339	0.411907	0.641992	0.762772	102.699614	8.469690	0.060619	62.492879	62.492879	62.492879	0.000348	12.709609	2.830000	0.888226	0.334133	-20.060633
660.504493	0.421882	0.646193	0.771719	102.727882	8.433209	0.059240	62.496163	62.496163	62.496163	-0.002277	12.715537	2.830000	0.893610	0.335578	-19.787810
670.018750	0.432041	0.650268	0.780710	102.755549	8.397852	0.057892	62.508382	62.508382	62.508382	-0.004841	12.721519	2.830000	0.898898	0.336991	-19.515229
679.670056	0.442382	0.654210	0.789743	102.782627	8.363589	0.056575	62.529582	62.529582	62.529582	-0.007346	12.727565	2.830000	0.904090	0.338371	-19.242968
689.460384	0.452907	0.658013	0.798815	102.809127	8.330391	0.055288	62.559811	62.559811	62.559811	-0.009791	12.733687	2.830000	0.909186	0.339720	-18.971100
699.391737	0.463613	0.661666	0.807923	102.835060	8.298231	0.054031	62.599111	62.599111	62.599111	-0.012177	12.739895	2.830000	0.914186	0.341037	-18.699694
709.466146	0.474501	0.665163	0.817064	102.860437	8.267080	0.052803	62.647524	62.647524	62.647524	-0.014504	12.746198	2.830000	0.919089	0.342322	-18.428815
719.685673	0.485569	0.668496	0.826235	102.885270	8.236914	0.051604	62.705086	62.705086	62.705086	-0.016773	12.752608	2.830000	0.923895	0.343575	-18.158525
730.052407	0.496815	0.671655	0.835431	102.909569	8.207707	0.050433	62.771834	62.771834	62.771834	-0.018982	12.759134	2.830000	0.928603	0.344798	-17.888883
740.568469	0.508238	0.674632	0.844651	102.933346	8.179435	0.049290	62.847798	62.847798	62.847798	-0.021134	12.765786	2.830000	0.933214	0.345990	-17.619942
751.236010	0.519836	0.677419	0.853888	102.956610	8.152074	0.048174	62.933007	62.933007	62.933007	-0.023228	12.772575	2.830000	0.937728	0.347151	-17.351753
762.057212	0.531605	0.680005	0.863140	102.979375	8.125602	0.047084	63.027486	63.027486	63.027486	-0.025263	12.779511	2.830000	0.942145	0.348282	-17.084366
773.034288	0.543544	0.682383	0.872403	103.001649	8.099997	0.046021	63.131259	63.131259	63.131259	-0.027242	12.786603	2.830000	0.946464	0.349383	-16.817824
784.169484	0.555648	0.684542	0.881670	103.023445	8.075238	0.044983	63.244342	63.244342	63.244342	-0.029163	12.793864	2.830000	0.950686	0.350454	-16.552171
795.465078	0.567914	0.686474	0.890939	103.044773	8.051306	0.043971	63.366751	63.366751	63.366751	-0.031028	12.801303	2.830000	0.954811	0.351496	-16.287444
806.923378	0.580337	0.688169	0.900204	103.065643	8.028181	0.042983	63.498498	63.498498	63.498498	-0.032836	12.808930	2.830000	0.958839	0.352508	-16.023680
818.546731	0.592914	0.689616	0.909460	103.086067	8.005844	0.042020	63.639589	63.639589	63.639589	-0.034587	12.816757	2.830000	0.962771	0.353492	-15.760913
830.337512	0.605637	0.690807	0.918701	103.106055	7.984279	0.041080	63.790027	63.790027	63.790027	-0.036283	12.824795	2.830000	0.966606	0.354447	-15.499175
842.298134	0.618503	0.691731	0.927922	103.125617	7.963467	0.040164	63.949812	63.949812	63.949812	-0.037922	12.833054	2.830000	0.970345	0.355373	-15.238494
854.431043	0.631505	0.692379	0.937116	103.144765	7.943392	0.039270	64.118937	64.118937	64.118937	-0.039506	12.841547	2.830000	0.973988	0.356271	-14.978896
866.738721	0.644635	0.692741	0.946279	103.163507	7.924039	0.038399	64.297392	64.297392	64.297392	-0.041034	12.850284	2.830000	0.977535	0.357141	-14.720407
879.223685	0.657886	0.692806	0.955403	103.181856	7.905393	0.037550	64.485163	64.485163	64.485163	-0.042507	12.859279	2.830000	0.980987	0.357983	-14.463047
891.888489	0.671251	0.692566	0.964482	103.199821	7.887439	0.036722	64.682228	64.682228	64.682228	-0.043925	12.868543	2.830000	0.984344	0.358798	-14.206839
904.735724	0.684720	0.692010	0.973509	103.217411	7.870165	0.035916	64.888563	64.888563	64.888563	-0.045288	12.878089	2.830000	0.987607	0.359586	-13.951800
917.768017	0.698284	0.691128	0.982476	103.234639	7.853557	0.035130	65.104135	65.104135	65.104135	-0.046596	12.887930	2.830000	0.990775	0.360346	-13.697946
930.988035	0.711934	0.689911	0.991377	103.251512	7.837602	0.034364	65.328908	65.328908	65.328908	-0.047850	12.898080	2.830000	0.993849	0.361080	-13.445294
944.398480	0.725659	0.688350	1.000203	103.268042	7.822290	0.033618	65.562838	65.562838	65.562838	-0.049049	12.908551	2.830000	0.996830	0.361787	-13.193857
958.002097	0.739447	0.686434	1.008947	103.284238	7.807609	0.032891	65.805874	65.805874	65.805874	-0.050193	12.919360	2.830000	0.999717	0.362467	-12.943647
971.801667	0.753287	0.684156	1.017601	103.300110	7.793549	0.032184	66.057962	66.057962	66.057962	-0.051283	12.930520	2.830000	1.002512	0.363121	-12.694675
985.800014	0.767165	0.681506	1.026155	103.315668	7.780100	0.031495	66.319035	66.319035	66.319035	-0.052318	12.942047	2.830000	1.005213	0.363749	-12.446952
1000.000000	0.781069	0.678477	1.034601	103.330921	7.767253	0.030824	66.589022	66.589022	66.589022	-0.053299	12.953956	2.830000	1.007822	0.364350	-12.200485
1014.404530	0.794983	0.675058	1.042930	103.345879	7.755000	0.030171	66.867844	66.867844	66.867844	-0.054226	12.966264	2.830000	1.010340	0.364926	-11.955284
1029.016551	0.808894	0.671245	1.051132	103.360551	7.743333	0.029536	67.155412	67.155412	67.155412	-0.055098	12.978989	2.830000	1.012765	0.365476	-11.711356
1043.839051	0.822785	0.667028	1.059198	103.374947	7.732245	0.028918	67.451629	67.451629	67.451629	-0.055915	12.992147	2.830000	1.015098	0.366000	-11.468706
1058.875063	0.836639	0.662401	1.067118	103.389077	7.721729	0.028316	67.756388	67.756388	67.756388	-0.056677	13.005758	2.830000	1.017341	0.366498	-11.227343
1074.127661	0.850440	0.657359	1.074881	103.402948	7.711780	0.027731	68.069572	68.069572	68.069572	-0.057385	13.019840	2.830000	1.019491	0.366971	-10.987272
1089.599965	0.864170	0.651896	1.082478	103.416572	7.702391	0.027161	68.391054	68.391054	68.391054	-0.058037	13.034413	2.830000	1.021551	0.367418	-10.748499
1105.295141	0.877809	0.646007	1.089896	103.429956	7.693560	0.026608	68.720696	68.720696	68.720696	-0.058634	13.049498	2.830000	1.023520	0.367840	-10.511029
1121.216399	0.891338	0.639688	1.097126	103.443110	7.685281	0.026070	69.058346	69.058346	69.058346	-0.059175	13.065116	2.830000	1.025397	0.368236	-10.274871
1137.366994	0.904737	0.632937	1.104155	103.456042	7.677551	0.025546	69.403843	69.403843	69.403843	-0.059660	13.081290	2.830000	1.027183	0.368607	-10.040031
1153.750232	0.917985	0.625751	1.110973	103.468762	7.670368	0.025038	69.757010	69.757010	69.757010	-0.060089	13.098043	2.830000	1.028879	0.368952	-9.806516
1170.369462	0.931060	0.618128	1.117567	103.481278	7.663730	0.024544	70.117658	70.117658	70.117658	-0.060460	13.115400	2.830000	1.030483	0.369272	-9.574335
1187.228084	0.943941	0.610070	1.123926	103.493600	7.657636	0.024064	70.485581	70.485581	70.485581	-0.060774	13.133385	2.830000	1.031995	0.369566	-9.343498
1204.329547	0.956603	0.601576	1.130037	103.505735	7.652085	0.023597	70.860560	70.860560	70.860560	-0.061031	13.152024	2.830000	1.033416	0.369834	-9.114017
1221.677349	0.969025	0.592650	1.135888	103.517692	7.647077	0.023145	71.242358	71.242358	71.242358	-0.061228	13.171347	2.830000	1.034745	0.370076	-8.885905
1239.275037	0.981180	0.583294	1.141467	103.529481	7.642613	0.022705	71.630720	71.630720	71.630720	-0.061367	13.191379	2.830000	1.035982	0.370292	-8.659177
1257.126212	0.993047	0.573515	1.146761	103.541108	7.638695	0.022278	72.025375	72.025375	72.025375	-0.061445	13.212152	2.830000	1.037126	0.370482	-8.433852
1275.234525	1.004598	0.563317	1.151757	103.552583	7.635324	0.021864	72.426030	72.426030	72.426030	-0.061464	13.233697	2.830000	1.038177	0.370646	-8.209950
1293.603680	1.015810	0.552710	1.156442	103.563914	7.632506	0.021462	72.832373	72.832373	72.832373	-0.061420	13.256044	2.830000	1.039135	0.370783	-7.987495
1312.237433	1.026657	0.541702	1.160804	103.575108	7.630242	0.021073	73.244070	73.244070	73.244070	-0.061315	13.279227	2.830000	1.039998	0.370893	-7.766516
1331.139597	1.037114	0.530305	1.164830	103.586175	7.628538	0.020695	73.660764	73.660764	73.660764	-0.061146	13.303282	2.830000	1.040766	0.370975	-7.547045
1350.314038	1.047154	0.518532	1.168506	103.597121	7.627399	0.020329	74.082074	74.082074	74.082074	-0.060913	13.328243	2.830000	1.041438	0.371031	-7.329118
1369.764677	1.056753	0.506398	1.171821	103.607954	7.626831	0.019974	74.507594	74.507594	74.507594	-0.060615	13.354147	2.830000	1.042014	0.371058	-7.112779
1389.495494	1.065884	0.493920	1.174762	103.618683	7.626843	0.019630	74.936890	74.936890	74.936890	-0.060251	13.381034	2.830000	1.042493	0.371058	-6.898075
1409.510524	1.074524	0.481115	1.177317	103.629313	7.627440	0.019297	75.369503	75.369503	75.369503	-0.059819	13.408941	2.830000	1.042873	0.371029	-6.685063
1429.813862	1.082648	0.468005	1.179473	103.639854	7.628633	0.018974	75.804941	75.804941	75.804941	-0.059319	13.437911	2.830000	1.043153	0.370971	-6.473805
1450.409659	1.090231	0.454613	1.181218	103.650311	7.630430	0.018662	76.242683	76.242683	76.242683	-0.058749	13.467984	2.830000	1.043333	0.370883	-6.264374
1471.302129	1.097251	0.440962	1.182543	103.660692	7.632842	0.018360	76.682176	76.682176	76.682176	-0.058107	13.499203	2.830000	1.043411	0.370766	-6.056849
1492.495545	1.103685	0.427081	1.183435	103.671003	7.635880	0.018068	77.122831	77.122831	77.122831	-0.057394	13.531612	2.830000	1.043386	0.370619	-5.851322
1513.994242	1.109513	0.412997	1.183886	103.681250	7.639555	0.017785	77.564027	77.564027	77.564027	-0.056607	13.565255	2.830000	1.043257	0.370440	-5.647895
1535.802619	1.114713	0.398743	1.183884	103.691439	7.643880	0.017512	78.005103	78.005103	78.005103	-0.055744	13.600178	2.830000	1.043023	0.370231	-5.446685
1557.925134	1.119269	0.384350	1.183422	103.701576	7.648869	0.017249	78.445362	78.445362	78.445362	-0.054806	13.636424	2.830000	1.042681	0.369989	-5.247819
1580.366314	1.123164	0.369854	1.182492	103.711665	7.654534	0.016994	78.884067	78.884067	78.884067	-0.053790	13.674040	2.830000	1.042231	0.369716	-5.051443
1603.130749	1.126382	0.355292	1.181088	103.721712	7.660890	0.016748	79.320440	79.320440	79.320440	-0.052694	13.713070	2.830000	1.041672	0.369409	-4.857718
1626.223094	1.128911	0.340704	1.179203	103.731720	7.667952	0.016511	79.753661	79.753661	79.753661	-0.051519	13.753557	2.830000	1.041001	0.369069	-4.666823
1649.648074	1.130741	0.326130	1.176833	103.741692	7.675733	0.016282	80.182867	80.182867	80.182867	-0.050262	13.795545	2.830000	1.040219	0.368694	-4.478958
1673.410480	1.131865	0.311612	1.173977	103.751631	7.684249	0.016061	80.607153	80.607153	80.607153	-0.048923	13.839073	2.830000	1.039323	0.368286	-4.294343
1697.515172	1.132277	0.297196	1.170631	103.761539	7.693514	0.015848	81.025568	81.025568	81.025568	-0.047501	13.884178	2.830000	1.038312	0.367842	-4.113223
1721.967081	1.131976	0.282927	1.166798	103.771416	7.703541	0.015643	81.437118	81.437118	81.437118	-0.045994	13.930894	2.830000	1.037187	0.367364	-3.935867
1746.771208	1.130963	0.268851	1.162480	103.781262	7.714345	0.015445	81.840765	81.840765	81.840765	-0.044403	13.979250	2.830000	1.035945	0.366849	-3.762572
1771.932627	1.129243	0.255017	1.157680	103.791076	7.725936	0.015255	82.235429	82.235429	82.235429	-0.042727	14.029268	2.830000	1.034587	0.366299	-3.593664
1797.456484	1.126825	0.241474	1.152408	103.800854	7.738325	0.015071	82.619986	82.619986	82.619986	-0.040966	14.080963	2.830000	1.033112	0.365712	-3.429499
1823.348001	1.123720	0.228272	1.146671	103.810593	7.751520	0.014894	82.993277	82.993277	82.993277	-0.039121	14.134341	2.830000	1.031521	0.365090	-3.270464
1849.612473	1.119946	0.215458	1.140483	103.820285	7.765526	0.014724	83.354103	83.354103	83.354103	-0.037193	14.189395	2.830000	1.029815	0.364431	-3.116982
1876.255272	1.115523	0.203084	1.133859	103.829924	7.780343	0.014560	83.701236	83.701236	83.701236	-0.035183	14.246106	2.830000	1.027994	0.363737	-2.969508
1903.281848	1.110477	0.191199	1.126817	103.839499	7.795969	0.014401	84.033418	84.033418	84.033418	-0.033092	14.304441	2.830000	1.026061	0.363008	-2.828533
1930.697729	1.104836	0.179849	1.119379	103.848997	7.812395	0.014249	84.349375	84.349375	84.349375	-0.030926	14.364344	2.830000	1.024020	0.362245	-2.694583
1958.508523	1.098635	0.169084	1.111570	103.858404	7.829605	0.014101	84.647818	84.647818	84.647818	-0.028686	14.425743	2.830000	1.021872	0.361449	-2.568219
1986.719919	1.091913	0.158947	1.103421	103.867702	7.847577	0.013959	84.927457	84.927457	84.927457	-0.026377	14.488536	2.830000	1.019624	0.360621	-2.450030
2015.337686	1.084713	0.149482	1.094964	103.876872	7.866278	0.013821	85.187012	85.187012	85.187012	-0.024006	14.552597	2.830000	1.017281	0.359764	-2.340638
2044.367679	1.077083	0.140730	1.086238	103.885890	7.885666	0.013687	85.425227	85.425227	85.425227	-0.021579	14.617766	2.830000	1.014851	0.358879	-2.240687
2073.815835	1.069075	0.132728	1.077283	103.894729	7.905684	0.013557	85.640884	85.640884	85.640884	-0.019105	14.683849	2.830000	1.012342	0.357970	-2.150836
2103.688178	1.060747	0.125508	1.068146	103.903360	7.926265	0.013430	85.832825	85.832825	85.832825	-0.016592	14.750611	2.830000	1.009765	0.357041	-2.071754
2133.990819	1.052159	0.119102	1.058879	103.911749	7.947323	0.013306	85.999968	85.999968	85.999968	-0.014054	14.817777	2.830000	1.007132	0.356095	-2.004107
2164.729954	1.043377	0.113533	1.049535	103.919862	7.968758	0.013184	86.141336	86.141336	86.141336	-0.011501	14.885025	2.830000	1.004456	0.355137	-1.948542
2195.911873	1.034468	0.108820	1.040176	103.927659	7.990450	0.013065	86.256077	86.256077	86.256077	-0.008949	14.951986	2.830000	1.001755	0.354173	-1.905670
2227.542952	1.025505	0.104977	1.030864	103.935097	8.012261	0.012946	86.343496	86.343496	86.343496	-0.006415	15.018241	2.830000	0.999045	0.353209	-1.876048
2259.629662	1.016562	0.102011	1.021668	103.942132	8.034030	0.012829	86.403082	86.403082	86.403082	-0.003915	15.083323	2.830000	0.996347	0.352252	-1.860153
2292.178566	1.007717	0.099923	1.012658	103.948717	8.055580	0.012712	86.434538	86.434538	86.434538	-0.001470	15.146716	2.830000	0.993682	0.351309	-1.858357
2325.196322	0.999046	0.098704	1.003910	103.954806	8.076710	0.012594	86.437816	86.437816	86.437816	0.000899	15.207862	2.830000	0.991076	0.350390	-1.870897
2358.689683	0.990630	0.098340	0.995499	103.960350	8.097204	0.012476	86.413142	86.413142	86.413142	0.003170	15.266162	2.830000	0.988552	0.349503	-1.897846
2392.665500	0.982547	0.098808	0.987503	103.965301	8.116830	0.012357	86.361052	86.361052	86.361052	0.005320	15.320991	2.830000	0.986138	0.348658	-1.939080
2427.130723	0.974877	0.100077	0.980000	103.969616	8.135342	0.012235	86.282414	86.282414	86.282414	0.007325	15.371704	2.830000	0.983861	0.347865	-1.994251
2462.092401	0.967696	0.102107	0.973068	103.973251	8.152490	0.012111	86.178453	86.178453	86.178453	0.009161	15.417656	2.830000	0.981750	0.347133	-2.062759
2497.557686	0.961078	0.104849	0.966780	103.976170	8.168021	0.011984	86.050765	86.050765	86.050765	0.010804	15.458217	2.830000	0.979833	0.346473	-2.143733
2533.533832	0.955093	0.108246	0.961208	103.978343	8.181691	0.011854	85.901328	85.901328	85.901328	0.012232	15.492791	2.830000	0.978135	0.345894	-2.236014
2570.028197	0.949808	0.112232	0.956416	103.979747	8.193271	0.011720	85.732503	85.732503	85.732503	0.013425	15.520842	2.830000	0.976683	0.345405	-2.338154
2607.048246	0.945283	0.116734	0.952463	103.980371	8.202557	0.011582	85.547022	85.547022	85.547022	0.014364	15.541912	2.830000	0.975499	0.345014	-2.448423
2644.601552	0.941569	0.121670	0.949397	103.980212	8.209376	0.011440	85.347967	85.347967	85.347967	0.015036	15.555648	2.830000	0.974602	0.344728	-2.564835
2682.695795	0.938712	0.126951	0.947257	103.979283	8.213600	0.011293	85.138737	85.138737	85.138737	0.015429	15.561821	2.830000	0.974007	0.344550	-2.685175
2721.338768	0.936747	0.132480	0.946069	103.977606	8.215151	0.011142	84.923000	84.923000	84.923000	0.015538	15.560341	2.830000	0.973724	0.344485	-2.807057
2760.538375	0.935700	0.138158	0.945844	103.975221	8.214006	0.010987	84.704638	84.704638	84.704638	0.015362	15.551274	2.830000	0.973757	0.344533	-2.927981
2800.302634	0.935583	0.143877	0.946582	103.972179	8.210201	0.010828	84.487677	84.487677	84.487677	0.014905	15.534845	2.830000	0.974104	0.344693	-3.045402
2840.639679	0.936399	0.149530	0.948263	103.968543	8.203833	0.010665	84.276213	84.276213	84.276213	0.014177	15.511441	2.830000	0.974757	0.344961	-3.156808
2881.557759	0.938136	0.155005	0.950855	103.964390	8.195058	0.010499	84.074325	84.074325	84.074325	0.013195	15.481601	2.830000	0.975703	0.345330	-3.259796
2923.065245	0.940769	0.160190	0.954310	103.959807	8.184088	0.010330	83.885993	83.885993	83.885993	0.011978	15.446007	2.830000	0.976920	0.345793	-3.352144
2965.170628	0.944258	0.164977	0.958561	103.954889	8.171181	0.010159	83.715006	83.715006	83.715006	0.010553	15.405462	2.830000	0.978382	0.346339	-3.431875
3007.882518	0.948549	0.169258	0.963532	103.949736	8.156637	0.009986	83.564884	83.564884	83.564884	0.008950	15.360868	2.830000	0.980059	0.346957	-3.497315
3051.209653	0.953576	0.172932	0.969130	103.944455	8.140782	0.009812	83.438790	83.438790	83.438790	0.007201	15.313199	2.830000	0.981915	0.347632	-3.547131
3095.160895	0.959255	0.175905	0.975250	103.939151	8.123967	0.009638	83.339467	83.339467	83.339467	0.005343	15.263470	2.830000	0.983912	0.348352	-3.580353
3139.745234	0.965491	0.178093	0.981779	103.933931	8.106549	0.009465	83.269170	83.269170	83.269170	0.003413	15.212715	2.830000	0.986009	0.349100	-3.596392
3184.971790	0.972177	0.179423	0.988595	103.928896	8.088886	0.009293	83.229616	83.229616	83.229616	0.001448	15.161958	2.830000	0.988163	0.349863	-3.595027
3230.849813	0.979192	0.179836	0.995569	103.924144	8.071326	0.009123	83.221947	83.221947	83.221947	-0.000511	15.112191	2.830000	0.990333	0.350624	-3.576398
3277.388687	0.986409	0.179289	1.002570	103.919765	8.054204	0.008956	83.246701	83.246701	83.246701	-0.002429	15.064354	2.830000	0.992477	0.351369	-3.540976
3324.597932	0.993689	0.177754	1.009463	103.915838	8.037833	0.008793	83.303795	83.303795	83.303795	-0.004269	15.019320	2.830000	0.994553	0.352085	-3.489538
3372.487204	1.000892	0.175226	1.016115	103.912437	8.022500	0.008633	83.392523	83.392523	83.392523	-0.005998	14.977884	2.830000	0.996524	0.352758	-3.423128
3421.066299	1.007872	0.171718	1.022396	103.909621	8.008464	0.008478	83.511560	83.511560	83.511560	-0.007585	14.940755	2.830000	0.998353	0.353376	-3.343027
3470.345152	1.014486	0.167264	1.028182	103.907442	7.995957	0.008329	83.658975	83.658975	83.658975	-0.009000	14.908553	2.830000	1.000007	0.353929	-3.250718
3520.333844	1.020591	0.161921	1.033356	103.905937	7.985177	0.008184	83.832257	83.832257	83.832257	-0.010220	14.881801	2.830000	1.001458	0.354407	-3.147860
3571.042600	1.026055	0.155766	1.037811	103.905133	7.976294	0.008046	84.028345	84.028345	84.028345	-0.011223	14.860931	2.830000	1.002678	0.354801	-3.036254
3622.481792	1.030753	0.148900	1.041452	103.905045	7.969446	0.007913	84.243663	84.243663	84.243663	-0.011990	14.846278	2.830000	1.003648	0.355106	-2.917833
3674.661941	1.034577	0.141442	1.044201	103.905676	7.964743	0.007787	84.474169	84.474169	84.474169	-0.012508	14.838080	2.830000	1.004348	0.355316	-2.794633
3727.593720	1.037434	0.133530	1.045992	103.907017	7.962259	0.007667	84.715407	84.715407	84.715407	-0.012767	14.836478	2.830000	1.004767	0.355427	-2.668786
3781.287957	1.039254	0.125318	1.046783	103.909046	7.962041	0.007553	84.962568	84.962568	84.962568	-0.012761	14.841514	2.830000	1.004895	0.355437	-2.542506
3835.755635	1.039992	0.116974	1.046550	103.911727	7.964098	0.007446	85.210563	85.210563	85.210563	-0.012490	14.853121	2.830000	1.004730	0.355345	-2.418074
3891.007893	1.039628	0.108673	1.045292	103.915014	7.968405	0.007344	85.454104	85.454104	85.454104	-0.011956	14.871119	2.830000	1.004274	0.355153	-2.297828
3947.056035	1.038171	0.100596	1.043034	103.918843	7.974896	0.007248	85.687807	85.687807	85.687807	-0.011169	14.895205	2.830000	1.003534	0.354864	-2.184138
4003.911523	1.035664	0.092923	1.039824	103.923141	7.983459	0.007157	85.906298	85.906298	85.906298	-0.010144	14.924944	2.830000	1.002526	0.354483	-2.079385
4061.585988	1.032177	0.085830	1.035739	103.927815	7.993933	0.007071	86.104344	86.104344	86.104344	-0.008901	14.959752	2.830000	1.001271	0.354018	-1.985918
4120.091227	1.027813	0.079481	1.030882	103.932761	8.006103	0.006990	86.277002	86.277002	86.277002	-0.007468	14.998891	2.830000	0.999796	0.353480	-1.906003
4179.439206	1.022707	0.074021	1.025382	103.937861	8.019693	0.006912	86.419781	86.419781	86.419781	-0.005878	15.041452	2.830000	0.998138	0.352881	-1.841752
4239.642065	1.017016	0.069575	1.019393	103.942983	8.034364	0.006837	86.528819	86.528819	86.528819	-0.004172	15.086361	2.830000	0.996341	0.352237	-1.795037
4300.712118	1.010926	0.066239	1.013093	103.947985	8.049713	0.006764	86.601077	86.601077	86.601077	-0.002398	15.132374	2.830000	0.994457	0.351565	-1.767379
4362.661857	1.004637	0.064074	1.006678	103.952717	8.065277	0.006692	86.634525	86.634525	86.634525	-0.000608	15.178099	2.830000	0.992542	0.350887	-1.759826
4425.503952	0.998364	0.063107	1.000356	103.957028	8.080538	0.006621	86.628327	86.628327	86.628327	0.001140	15.222027	2.830000	0.990660	0.350224	-1.772823
4489.251258	0.992328	0.063321	0.994346	103.960768	8.094943	0.006550	86.583002	86.583002	86.583002	0.002784	15.262579	2.830000	0.988879	0.349601	-1.806084
4553.916814	0.986747	0.064658	0.988863	103.963801	8.107923	0.006477	86.500544	86.500544	86.500544	0.004264	15.298178	2.830000	0.987267	0.349041	-1.858479
4619.513847	0.981829	0.067017	0.984114	103.966006	8.118927	0.006403	86.384479	86.384479	86.384479	0.005521	15.327335	2.830000	0.985890	0.348568	-1.927967
4686.055775	0.977762	0.070256	0.980283	103.967294	8.127451	0.006326	86.239857	86.239857	86.239857	0.006501	15.348748	2.830000	0.984806	0.348203	-2.011585
4753.556208	0.974707	0.074196	0.977527	103.967607	8.133085	0.006246	86.073136	86.073136	86.073136	0.007163	15.361402	2.830000	0.984066	0.347961	-2.105505
4822.028953	0.972788	0.078621	0.975960	103.966935	8.135543	0.006163	85.891981	85.891981	85.891981	0.007475	15.364673	2.830000	0.983704	0.347856	-2.205189
4891.488015	0.972084	0.083295	0.975646	103.965312	8.134699	0.006077	85.704953	85.704953	85.704953	0.007424	15.358397	2.830000	0.983738	0.347892	-2.305620
4961.947603	0.972626	0.087959	0.976595	103.962820	8.130604	0.005987	85.521117	85.521117	85.521117	0.007014	15.342918	2.830000	0.984166	0.348068	-2.401594
5033.422128	0.974388	0.092354	0.978755	103.959591	8.123490	0.005894	85.349585	85.349585	85.349585	0.006268	15.319087	2.830000	0.984965	0.348372	-2.488065
5105.926210	0.977291	0.096221	0.982016	103.955794	8.113765	0.005800	85.199016	85.199016	85.199016	0.005227	15.288229	2.830000	0.986090	0.348790	-2.560477
5179.474679	0.981197	0.099322	0.986211	103.951632	8.101980	0.005703	85.077131	85.077131	85.077131	0.003949	15.252055	2.830000	0.987482	0.349297	-2.615070
5254.082580	0.985917	0.101451	0.991123	103.947326	8.088795	0.005606	84.990255	84.990255	84.990255	0.002502	15.212560	2.830000	0.989065	0.349867	-2.649116
5329.765172	0.991216	0.102442	0.996496	103.943106	8.074935	0.005509	84.942938	84.942938	84.942938	0.000967	15.171890	2.830000	0.990753	0.350467	-2.661061
5406.537936	0.996821	0.102187	1.002045	103.939194	8.061147	0.005413	84.937665	84.937665	84.937665	-0.000576	15.132218	2.830000	0.992456	0.351067	-2.650590
5484.416576	1.002438	0.100639	1.007477	103.935795	8.048154	0.005319	84.974687	84.974687	84.974687	-0.002043	15.095621	2.830000	0.994084	0.351633	-2.618598
5563.417021	1.007760	0.097821	1.012496	103.933086	8.036620	0.005228	85.051958	85.051958	85.051958	-0.003357	15.063974	2.830000	0.995551	0.352138	-2.567096
5643.555431	1.012490	0.093830	1.016829	103.931205	8.027124	0.005140	85.165194	85.165194	85.165194	-0.004449	15.038871	2.830000	0.996781	0.352555	-2.499081
5724.848197	1.016357	0.088833	1.020232	103.930250	8.020133	0.005057	85.308046	85.308046	85.308046	-0.005261	15.021559	2.830000	0.997710	0.352862	-2.418368
5807.311946	1.019131	0.083064	1.022511	103.930265	8.015991	0.004979	85.472367	85.472367	85.472367	-0.005751	15.012888	2.830000	0.998290	0.353044	-2.329423
5890.963548	1.020645	0.076809	1.023531	103.931248	8.014900	0.004905	85.648580	85.648580	85.648580	-0.005892	15.013277	2.830000	0.998490	0.353092	-2.237181
5975.820111	1.020803	0.070395	1.023227	103.933140	8.016912	0.004836	85.826133	85.826133	85.826133	-0.005674	15.022684	2.830000	0.998299	0.353004	-2.146858
6061.898993	1.019596	0.064171	1.021614	103.935831	8.021919	0.004772	85.994037	85.994037	85.994037	-0.005108	15.040581	2.830000	0.997730	0.352783	-2.063748
6149.217802	1.017105	0.058483	1.018785	103.939158	8.029643	0.004711	86.141485	86.141485	86.141485	-0.004226	15.065944	2.830000	0.996813	0.352444	-1.992989
6237.794396	1.013502	0.053652	1.014921	103.942914	8.039631	0.004655	86.258528	86.258528	86.258528	-0.003079	15.097248	2.830000	0.995607	0.352006	-1.939280
6327.646895	1.009039	0.049947	1.010275	103.946848	8.051255	0.004601	86.336801	86.336801	86.336801	-0.001739	15.132490	2.830000	0.994189	0.351498	-1.906562
6418.793677	1.004042	0.047566	1.005168	103.950685	8.063732	0.004549	86.370247	86.370247	86.370247	-0.000294	15.169257	2.830000	0.992655	0.350954	-1.897643
6511.253386	0.998882	0.046616	0.999969	103.954136	8.076149	0.004498	86.355781	86.355781	86.355781	0.001151	15.204836	2.830000	0.991120	0.350415	-1.913818
6605.044933	0.993957	0.047095	0.995072	103.956925	8.087525	0.004446	86.293822	86.293822	86.293822	0.002488	15.236402	2.830000	0.989702	0.349922	-1.954519
6700.187504	0.989655	0.048892	0.990861	103.958812	8.096894	0.004393	86.188587	86.188587	86.188587	0.003609	15.261258	2.830000	0.988519	0.349517	-2.017097
6796.700558	0.986324	0.051786	0.987683	103.959619	8.103400	0.004339	86.048070	86.048070	86.048070	0.004419	15.277123	2.830000	0.987676	0.349236	-2.096787
6894.603838	0.984244	0.055458	0.985806	103.959259	8.106412	0.004281	85.883614	85.883614	85.883614	0.004844	15.282434	2.830000	0.987251	0.349106	-2.186967
6993.917368	0.983593	0.059516	0.985392	103.957751	8.105614	0.004221	85.709072	85.709072	85.709072	0.004848	15.276590	2.830000	0.987286	0.349141	-2.279711
7094.661463	0.984427	0.063521	0.986474	103.955226	8.101075	0.004158	85.539600	85.539600	85.539600	0.004431	15.260099	2.830000	0.987779	0.349336	-2.366601
7196.856730	0.986669	0.067032	0.988943	103.951921	8.093252	0.004093	85.390173	85.390173	85.390173	0.003637	15.234580	2.830000	0.988681	0.349674	-2.439691
7300.524071	0.990107	0.069638	0.992553	103.948155	8.082953	0.004026	85.274034	85.274034	85.274034	0.002549	15.202610	2.830000	0.989901	0.350120	-2.492446
7405.684692	0.994411	0.071008	0.996943	103.944298	8.071243	0.003959	85.201242	85.201242	85.201242	0.001280	15.167435	2.830000	0.991316	0.350628	-2.520506
7512.360102	0.999150	0.070925	1.001664	103.940729	8.059320	0.003892	85.177524	85.177524	85.177524	-0.000038	15.132604	2.830000	0.992781	0.351146	-2.522151
7620.572122	1.003841	0.069315	1.006231	103.937796	8.048381	0.003826	85.203560	85.203560	85.203560	-0.001270	15.101589	2.830000	0.994149	0.351624	-2.498442
7730.342884	1.007990	0.066265	1.010166	103.935781	8.039508	0.003763	85.274788	85.274788	85.274788	-0.002287	15.077428	2.830000	0.995280	0.352012	-2.453048
7841.694843	1.011149	0.062019	1.013050	103.934872	8.033560	0.003704	85.381725	85.381725	85.381725	-0.002986	15.062438	2.830000	0.996062	0.352272	-2.391849
7954.650775	1.012967	0.056965	1.014568	103.935138	8.031105	0.003648	85.510803	85.510803	85.510803	-0.003292	15.058007	2.830000	0.996416	0.352380	-2.322372
8069.233784	1.013237	0.051594	1.014550	103.936527	8.032359	0.003596	85.645633	85.645633	85.645633	-0.003174	15.064446	2.830000	0.996309	0.352325	-2.253133
8185.467307	1.011928	0.046451	1.012994	103.938858	8.037157	0.003548	85.768642	85.768642	85.768642	-0.002641	15.080922	2.830000	0.995754	0.352115	-2.192884
8303.375120	1.009201	0.042068	1.010077	103.941837	8.044942	0.003504	85.862972	85.862972	85.862972	-0.001753	15.105456	2.830000	0.994819	0.351774	-2.149776
8422.981339	1.005396	0.038900	1.006149	103.945077	8.054779	0.003462	85.914516	85.914516	85.914516	-0.000612	15.135025	2.830000	0.993617	0.351344	-2.130436
8544.310429	1.001004	0.037260	1.001697	103.948138	8.065419	0.003421	85.913891	85.913891	85.913891	0.000644	15.165788	2.830000	0.992300	0.350881	-2.139010
8667.387209	0.996605	0.037267	0.997302	103.950574	8.075420	0.003381	85.858077	85.858077	85.858077	0.001851	15.193484	2.830000	0.991047	0.350446	-2.176278
8792.236851	0.992798	0.038825	0.993557	103.952001	8.083323	0.003340	85.751405	85.751405	85.751405	0.002845	15.213996	2.830000	0.990037	0.350104	-2.239090
8918.884894	0.990113	0.041616	0.990987	103.952160	8.087893	0.003297	85.605550	85.605550	85.605550	0.003482	15.224014	2.830000	0.989421	0.349906	-2.320345
9047.357242	0.988935	0.045139	0.989965	103.950974	8.088352	0.003252	85.438330	85.438330	85.438330	0.003668	15.221700	2.830000	0.989301	0.349886	-2.409750
9177.680175	0.989438	0.048772	0.990640	103.948575	8.084563	0.003204	85.271288	85.271288	85.271288	0.003375	15.207143	2.830000	0.989702	0.350050	-2.495354
9309.880348	0.991543	0.051861	0.992899	103.945299	8.077100	0.003154	85.126381	85.126381	85.126381	0.002653	15.182468	2.830000	0.990562	0.350373	-2.565616
9443.984802	0.994919	0.053820	0.996373	103.941630	8.067161	0.003103	85.022310	85.022310	85.022310	0.001623	15.151529	2.830000	0.991747	0.350805	-2.611526
9580.020968	0.999019	0.054231	1.000490	103.938124	8.056358	0.003051	84.971233	84.971233	84.971233	0.000460	15.119234	2.830000	0.993063	0.351275	-2.628260
9718.016671	1.003164	0.052922	1.004559	103.935312	8.046434	0.003000	84.976485	84.976485	84.976485	-0.000642	15.090686	2.830000	0.994298	0.351709	-2.616010
9858.000137	1.006646	0.050011	1.007888	103.933604	8.038962	0.002952	85.031745	85.031745	85.031745	-0.001494	15.070312	2.830000	0.995251	0.352036	-2.579895
10000.000000	1.008857	0.045902	1.009900	103.933222	8.035096	0.002907	85.121823	85.121823	85.121823	-0.001954	15.061146	2.830000	0.995769	0.352205	-2.529096
10144.045304	1.009397	0.041229	1.010239	103.934160	8.035392	0.002865	85.224947	85.224947	85.224947	-0.001942	15.064338	2.830000	0.995773	0.352192	-2.475419
10290.165513	1.008170	0.036748	1.008840	103.936172	8.039701	0.002827	85.316286	85.316286	85.316286	-0.001458	15.078905	2.830000	0.995272	0.352003	-2.431491
10438.390514	1.005413	0.033202	1.005961	103.938803	8.047150	0.002791	85.372279	85.372279	85.372279	-0.000590	15.101768	2.830000	0.994367	0.351677	-2.408724
10588.750628	1.001668	0.031170	1.002153	103.941456	8.056228	0.002758	85.375178	85.375178	85.375178	0.000500	15.128115	2.830000	0.993242	0.351281	-2.415176
10741.276608	0.997694	0.030945	0.998174	103.943494	8.065005	0.002725	85.317029	85.317029	85.317029	0.001597	15.152136	2.830000	0.992133	0.350899	-2.453609
10895.999653	0.994318	0.032453	0.994847	103.944373	8.071485	0.002691	85.202148	85.202148	85.202148	0.002471	15.168149	2.830000	0.991286	0.350617	-2.520246
11052.951411	0.992259	0.035250	0.992885	103.943778	8.074074	0.002655	85.047167	85.047167	85.047167	0.002933	15.171937	2.830000	0.990903	0.350505	-2.604867
11212.163986	0.991968	0.038596	0.992719	103.941718	8.072015	0.002617	84.878125	84.878125	84.878125	0.002877	15.161948	2.830000	0.991086	0.350594	-2.692672
11373.669943	0.993509	0.041613	0.994380	103.938551	8.065658	0.002577	84.724857	84.724857	84.724857	0.002321	15.139911	2.830000	0.991805	0.350870	-2.767739
11537.502317	0.996519	0.043474	0.997467	103.934914	8.056420	0.002536	84.613886	84.613886	84.613886	0.001401	15.110546	2.830000	0.992900	0.351273	-2.817150
11703.694619	1.000276	0.043610	1.001226	103.931566	8.046428	0.002494	84.561689	84.561689	84.561689	0.000346	15.080401	2.830000	0.994118	0.351709	-2.834423
11872.280844	1.003854	0.041863	1.004727	103.929195	8.037983	0.002453	84.570220	84.570220	84.570220	-0.000582	15.056180	2.830000	0.995174	0.352078	-2.821196
12043.295474	1.006349	0.038549	1.007087	103.928245	8.032981	0.002415	84.625948	84.625948	84.625948	-0.001152	15.043076	2.830000	0.995823	0.352298	-2.786794
12216.773490	1.007114	0.034401	1.007701	103.928795	8.032463	0.002380	84.702752	84.702752	84.702752	-0.001218	15.043493	2.830000	0.995922	0.352320	-2.746003
12392.750375	1.005946	0.030398	1.006406	103.930529	8.036345	0.002348	84.768114	84.768114	84.768114	-0.000765	15.056392	2.830000	0.995466	0.352150	-2.715619
12571.262124	1.003173	0.027506	1.003550	103.932794	8.043379	0.002319	84.791400	84.791400	84.791400	0.000089	15.077367	2.830000	0.994599	0.351842	-2.710374
12752.345251	0.999581	0.026403	0.999929	103.934753	8.051379	0.002290	84.752443	84.752443	84.752443	0.001108	15.099530	2.830000	0.993588	0.351493	-2.738851
12936.036796	0.996217	0.027269	0.996590	103.935610	8.057745	0.002262	84.648167	84.648167	84.648167	0.001998	15.115237	2.830000	0.992751	0.351215	-2.800367
13122.374331	0.994089	0.029698	0.994532	103.934863	8.060230	0.002232	84.494847	84.494847	84.494847	0.002488	15.118397	2.830000	0.992373	0.351107	-2.884141
13311.395971	0.993847	0.032798	0.994388	103.932499	8.057738	0.002200	84.324357	84.324357	84.324357	0.002427	15.106680	2.830000	0.992602	0.351215	-2.971884
13503.140379	0.995564	0.035441	0.996195	103.929035	8.050799	0.002166	84.174661	84.174661	84.174661	0.001836	15.082630	2.830000	0.993392	0.351518	-3.043598
13697.646775	0.998677	0.036621	0.999348	103.925370	8.041458	0.002131	84.077297	84.077297	84.077297	0.000917	15.052997	2.830000	0.994508	0.351926	-3.084615
13894.954944	1.002140	0.035800	1.002779	103.922476	8.032572	0.002096	84.046285	84.046285	84.046285	-0.000016	15.026435	2.830000	0.995603	0.352316	-3.090902
14095.105244	1.004762	0.033114	1.005308	103.921060	8.026822	0.002064	84.072665	84.072665	84.072665	-0.000641	15.010496	2.830000	0.996335	0.352568	-3.070518
14298.138616	1.005618	0.029365	1.006046	103.921308	8.025802	0.002034	84.126825	84.126825	84.126825	-0.000744	15.009034	2.830000	0.996489	0.352613	-3.040938
14504.096588	1.004401	0.025765	1.004731	103.922803	8.029465	0.002006	84.168145	84.168145	84.168145	-0.000287	15.020810	2.830000	0.996051	0.352452	-3.023330
14713.021288	1.001572	0.023502	1.001848	103.924640	8.036053	0.001981	84.159218	84.159218	84.159218	0.000564	15.039660	2.830000	0.995223	0.352163	-3.035355
14924.955451	0.998223	0.023283	0.998495	103.925729	8.042604	0.001956	84.080212	84.080212	84.080212	0.001485	15.056385	2.830000	0.994367	0.351876	-3.084370
15139.942425	0.995679	0.025028	0.995993	103.925221	8.046002	0.001931	83.937981	83.937981	83.937981	0.002113	15.062118	2.830000	0.993872	0.351727	-3.163466
15358.026185	0.994970	0.027858	0.995359	103.922886	8.044303	0.001904	83.765152	83.765152	83.765152	0.002187	15.052163	2.830000	0.993995	0.351802	-3.252998
15579.251340	0.996386	0.030424	0.996850	103.919272	8.037715	0.001875	83.607759	83.607759	83.607759	0.001681	15.028461	2.830000	0.994734	0.352090	-3.328379
15803.663140	0.999313	0.031458	0.999808	103.915501	8.028611	0.001844	83.505589	83.505589	83.505589	0.000821	14.999066	2.830000	0.995819	0.352489	-3.371157
16031.307485	1.002454	0.030339	1.002913	103.912771	8.020486	0.001815	83.474002	83.474002	83.474002	-0.000008	14.974569	2.830000	0.996821	0.352846	-3.377693
16262.230941	1.004385	0.027410	1.004759	103.911803	8.016367	0.001787	83.496068	83.496068	83.496068	-0.000430	14.963289	2.830000	0.997350	0.353028	-3.360963
16496.480741	1.004211	0.023869	1.004494	103.912497	8.017459	0.001762	83.529175	83.529175	83.529175	-0.000253	14.967471	2.830000	0.997231	0.352980	-3.344923
16734.104799	1.002021	0.021237	1.002246	103.913935	8.022541	0.001739	83.523902	83.523902	83.523902	0.000439	14.982058	2.830000	0.996590	0.352756	-3.353983
16975.151720	0.998902	0.020627	0.999115	103.914780	8.028387	0.001717	83.447599	83.447599	83.447599	0.001310	14.996627	2.830000	0.995815	0.352499	-3.401485
17219.670809	0.996436	0.022159	0.996682	103.913919	8.031209	0.001695	83.301982	83.301982	83.301982	0.001919	15.000193	2.830000	0.995381	0.352375	-3.482013
17467.712080	0.995901	0.024845	0.996211	103.911087	8.028654	0.001671	83.124576	83.124576	83.124576	0.001945	14.987103	2.830000	0.995601	0.352487	-3.572575
17719.326270	0.997576	0.027059	0.997943	103.907082	8.021258	0.001645	82.970399	82.970399	82.970399	0.001380	14.960679	2.830000	0.996440	0.352812	-3.644276
17974.564843	1.000531	0.027399	1.000907	103.903371	8.012276	0.001618	82.881932	82.881932	82.881932	0.000542	14.931736	2.830000	0.997519	0.353208	-3.678799
18233.480009	1.003095	0.025491	1.003419	103.901252	8.005839	0.001593	82.864318	82.864318	82.864318	-0.000090	14.912470	2.830000	0.998321	0.353492	-3.679284
18496.124725	1.003782	0.022258	1.004029	103.901089	8.004598	0.001570	82.881049	82.881049	82.881049	-0.000154	14.909424	2.830000	0.998487	0.353547	-3.668793
18762.552716	1.002193	0.019435	1.002381	103.902061	8.008174	0.001549	82.873783	82.873783	82.873783	0.000387	14.919570	2.830000	0.998031	0.353389	-3.677495
19032.818477	0.999310	0.018551	0.999482	103.902592	8.013233	0.001529	82.796498	82.796498	82.796498	0.001204	14.931623	2.830000	0.997348	0.353166	-3.725173
19306.977289	0.996952	0.019949	0.997152	103.901289	8.015334	0.001509	82.645076	82.645076	82.645076	0.001783	14.932482	2.830000	0.996991	0.353073	-3.808094
19585.085230	0.996639	0.022513	0.996894	103.897891	8.011787	0.001487	82.462671	82.462671	82.462671	0.001747	14.915801	2.830000	0.997325	0.353230	-3.899496
19867.199185	0.998568	0.024330	0.998865	103.893533	8.003658	0.001464	82.313307	82.313307	82.313307	0.001125	14.886919	2.830000	0.998258	0.353588	-3.966554
20000.000000	0.999901	0.024467	1.000200	103.891690	7.999443	0.001453	82.268488	82.268488	82.268488	0.000749	14.873083	2.830000	0.998763	0.353775	-3.983967
