Freq (hertz)	Ra (norm)	Xa (norm)	Za (norm)	SPL (dB)	Ze (ohms)	Xd (mm) 	WPhase (deg)	UPhase (deg)	CPhase (deg)	Delay (msec)	Efficiency (%)	Ein (volts)	Pin (watts)	Iin (amps)	ZePhase (deg)

10.000000	0.000117	0.012973	0.012974	59.880135	2.663331	1.674829	167.387821	167.387821	167.387821	3.513427	0.000200	2.830000	2.949116	1.062579	11.269778
10.144045	0.000120	0.013160	0.013161	60.126941	2.665212	1.674514	167.205617	167.205617	167.205617	3.513834	0.000212	2.830000	2.945361	1.061829	11.431902
10.290166	0.000124	0.013350	0.013350	60.373697	2.667150	1.674189	167.020767	167.020767	167.020767	3.514252	0.000225	2.830000	2.941500	1.061058	11.596349
10.438391	0.000127	0.013542	0.013543	60.620403	2.669148	1.673854	166.833231	166.833231	166.833231	3.514679	0.000238	2.830000	2.937531	1.060264	11.763153
10.588751	0.000131	0.013737	0.013738	60.867057	2.671206	1.673510	166.642971	166.642971	166.642971	3.515116	0.000252	2.830000	2.933449	1.059447	11.932346
10.741277	0.000135	0.013935	0.013935	61.113656	2.673327	1.673155	166.449946	166.449946	166.449946	3.515564	0.000267	2.830000	2.929253	1.058606	12.103963
10.896000	0.000139	0.014136	0.014136	61.360200	2.675513	1.672789	166.254115	166.254115	166.254115	3.516022	0.000284	2.830000	2.924940	1.057741	12.278037
11.052951	0.000143	0.014339	0.014340	61.606687	2.677766	1.672413	166.055438	166.055438	166.055438	3.516490	0.000301	2.830000	2.920505	1.056851	12.454603
11.212164	0.000147	0.014546	0.014546	61.853114	2.680087	1.672025	165.853871	165.853871	165.853871	3.516969	0.000319	2.830000	2.915946	1.055936	12.633696
11.373670	0.000151	0.014755	0.014756	62.099481	2.682481	1.671626	165.649373	165.649373	165.649373	3.517458	0.000338	2.830000	2.911260	1.054994	12.815351
11.537502	0.000155	0.014968	0.014968	62.345784	2.684947	1.671215	165.441900	165.441900	165.441900	3.517959	0.000358	2.830000	2.906442	1.054024	12.999604
11.703695	0.000160	0.015183	0.015184	62.592023	2.687490	1.670791	165.231408	165.231408	165.231408	3.518470	0.000380	2.830000	2.901490	1.053027	13.186491
11.872281	0.000165	0.015402	0.015403	62.838195	2.690111	1.670355	165.017852	165.017852	165.017852	3.518993	0.000402	2.830000	2.896400	1.052001	13.376049
12.043295	0.000169	0.015624	0.015625	63.084298	2.692814	1.669905	164.801188	164.801188	164.801188	3.519526	0.000427	2.830000	2.891169	1.050945	13.568316
12.216773	0.000174	0.015849	0.015850	63.330329	2.695600	1.669442	164.581369	164.581369	164.581369	3.520071	0.000452	2.830000	2.885791	1.049859	13.763328
12.392750	0.000179	0.016077	0.016078	63.576287	2.698472	1.668965	164.358349	164.358349	164.358349	3.520628	0.000480	2.830000	2.880265	1.048742	13.961125
12.571262	0.000185	0.016308	0.016309	63.822170	2.701434	1.668474	164.132081	164.132081	164.132081	3.521196	0.000509	2.830000	2.874585	1.047592	14.161744
12.752345	0.000190	0.016543	0.016544	64.067974	2.704488	1.667968	163.902515	163.902515	163.902515	3.521775	0.000539	2.830000	2.868748	1.046409	14.365224
12.936037	0.000195	0.016782	0.016783	64.313698	2.707637	1.667447	163.669604	163.669604	163.669604	3.522366	0.000572	2.830000	2.862749	1.045192	14.571606
13.122374	0.000201	0.017023	0.017024	64.559338	2.710885	1.666909	163.433299	163.433299	163.433299	3.522969	0.000606	2.830000	2.856585	1.043940	14.780928
13.311396	0.000207	0.017268	0.017270	64.804893	2.714234	1.666356	163.193547	163.193547	163.193547	3.523583	0.000643	2.830000	2.850251	1.042651	14.993232
13.503140	0.000213	0.017517	0.017518	65.050359	2.717689	1.665786	162.950300	162.950300	162.950300	3.524209	0.000682	2.830000	2.843742	1.041326	15.208558
13.697647	0.000219	0.017769	0.017771	65.295733	2.721253	1.665198	162.703504	162.703504	162.703504	3.524847	0.000723	2.830000	2.837055	1.039962	15.426947
13.894955	0.000226	0.018025	0.018027	65.541014	2.724929	1.664593	162.453108	162.453108	162.453108	3.525496	0.000767	2.830000	2.830184	1.038559	15.648441
14.095105	0.000232	0.018285	0.018286	65.786197	2.728721	1.663970	162.199058	162.199058	162.199058	3.526157	0.000814	2.830000	2.823125	1.037116	15.873082
14.298139	0.000239	0.018548	0.018550	66.031279	2.732633	1.663327	161.941300	161.941300	161.941300	3.526829	0.000863	2.830000	2.815873	1.035631	16.100913
14.504097	0.000246	0.018815	0.018817	66.276258	2.736670	1.662665	161.679778	161.679778	161.679778	3.527512	0.000916	2.830000	2.808424	1.034104	16.331977
14.713021	0.000253	0.019086	0.019088	66.521129	2.740835	1.661982	161.414437	161.414437	161.414437	3.528207	0.000972	2.830000	2.800772	1.032532	16.566317
14.924955	0.000260	0.019361	0.019363	66.765890	2.745133	1.661279	161.145221	161.145221	161.145221	3.528913	0.001031	2.830000	2.792912	1.030915	16.803977
15.139942	0.000268	0.019640	0.019642	67.010537	2.749569	1.660555	160.872072	160.872072	160.872072	3.529629	0.001094	2.830000	2.784839	1.029252	17.045001
15.358026	0.000275	0.019923	0.019925	67.255066	2.754147	1.659808	160.594932	160.594932	160.594932	3.530356	0.001161	2.830000	2.776548	1.027541	17.289434
15.579251	0.000283	0.020210	0.020212	67.499474	2.758873	1.659038	160.313741	160.313741	160.313741	3.531094	0.001232	2.830000	2.768033	1.025781	17.537320
15.803663	0.000292	0.020501	0.020503	67.743755	2.763752	1.658245	160.028440	160.028440	160.028440	3.531842	0.001307	2.830000	2.759290	1.023970	17.788706
16.031307	0.000300	0.020796	0.020798	67.987907	2.768788	1.657428	159.738968	159.738968	159.738968	3.532599	0.001387	2.830000	2.750311	1.022108	18.043637
16.262231	0.000309	0.021095	0.021098	68.231925	2.773988	1.656585	159.445262	159.445262	159.445262	3.533366	0.001472	2.830000	2.741093	1.020192	18.302159
16.496481	0.000318	0.021399	0.021401	68.475804	2.779358	1.655717	159.147261	159.147261	159.147261	3.534141	0.001563	2.830000	2.731628	1.018221	18.564318
16.734105	0.000327	0.021707	0.021710	68.719541	2.784903	1.654821	158.844901	158.844901	158.844901	3.534925	0.001659	2.830000	2.721911	1.016193	18.830161
16.975152	0.000337	0.022020	0.022022	68.963129	2.790630	1.653899	158.538117	158.538117	158.538117	3.535717	0.001761	2.830000	2.711937	1.014108	19.099735
17.219671	0.000346	0.022337	0.022340	69.206565	2.796546	1.652947	158.226843	158.226843	158.226843	3.536516	0.001869	2.830000	2.701699	1.011963	19.373088
17.467712	0.000356	0.022658	0.022661	69.449843	2.802657	1.651967	157.911015	157.911015	157.911015	3.537321	0.001985	2.830000	2.691190	1.009756	19.650266
17.719326	0.000367	0.022985	0.022988	69.692959	2.808971	1.650956	157.590563	157.590563	157.590563	3.538132	0.002108	2.830000	2.680406	1.007486	19.931317
17.974565	0.000377	0.023316	0.023319	69.935906	2.815494	1.649914	157.265421	157.265421	157.265421	3.538948	0.002238	2.830000	2.669339	1.005152	20.216290
18.233480	0.000388	0.023651	0.023655	70.178679	2.822236	1.648839	156.935520	156.935520	156.935520	3.539769	0.002377	2.830000	2.657984	1.002751	20.505232
18.496125	0.000400	0.023992	0.023995	70.421272	2.829204	1.647731	156.600788	156.600788	156.600788	3.540592	0.002525	2.830000	2.646333	1.000281	20.798191
18.762553	0.000411	0.024337	0.024341	70.663679	2.836406	1.646589	156.261156	156.261156	156.261156	3.541418	0.002682	2.830000	2.634380	0.997742	21.095216
19.032818	0.000423	0.024688	0.024691	70.905894	2.843852	1.645411	155.916551	155.916551	155.916551	3.542244	0.002849	2.830000	2.622120	0.995129	21.396354
19.306977	0.000435	0.025043	0.025047	71.147911	2.851550	1.644197	155.566900	155.566900	155.566900	3.543070	0.003026	2.830000	2.609544	0.992443	21.701653
19.585085	0.000448	0.025404	0.025408	71.389722	2.859511	1.642945	155.212131	155.212131	155.212131	3.543895	0.003216	2.830000	2.596647	0.989680	22.011162
19.867199	0.000461	0.025770	0.025774	71.631321	2.867744	1.641654	154.852167	154.852167	154.852167	3.544716	0.003417	2.830000	2.583421	0.986839	22.324928
20.153377	0.000474	0.026141	0.026145	71.872700	2.876260	1.640322	154.486934	154.486934	154.486934	3.545533	0.003631	2.830000	2.569860	0.983917	22.642999
20.443677	0.000488	0.026517	0.026521	72.113853	2.885071	1.638949	154.116355	154.116355	154.116355	3.546344	0.003859	2.830000	2.555958	0.980912	22.965422
20.738158	0.000502	0.026899	0.026903	72.354770	2.894187	1.637532	153.740353	153.740353	153.740353	3.547146	0.004102	2.830000	2.541706	0.977822	23.292245
21.036882	0.000517	0.027286	0.027291	72.595446	2.903622	1.636072	153.358848	153.358848	153.358848	3.547938	0.004361	2.830000	2.527100	0.974645	23.623513
21.339908	0.000532	0.027679	0.027684	72.835870	2.913387	1.634565	152.971763	152.971763	152.971763	3.548718	0.004637	2.830000	2.512131	0.971378	23.959273
21.647300	0.000547	0.028077	0.028083	73.076034	2.923496	1.633012	152.579016	152.579016	152.579016	3.549484	0.004931	2.830000	2.496792	0.968019	24.299570
21.959119	0.000563	0.028481	0.028487	73.315930	2.933963	1.631409	152.180526	152.180526	152.180526	3.550233	0.005244	2.830000	2.481078	0.964566	24.644449
22.275430	0.000580	0.028891	0.028897	73.555549	2.944803	1.629756	151.776213	151.776213	151.776213	3.550962	0.005577	2.830000	2.464982	0.961015	24.993953
22.596297	0.000596	0.029307	0.029313	73.794880	2.956031	1.628051	151.365992	151.365992	151.365992	3.551669	0.005933	2.830000	2.448495	0.957365	25.348126
22.921786	0.000614	0.029729	0.029736	74.033913	2.967664	1.626292	150.949781	150.949781	150.949781	3.552352	0.006312	2.830000	2.431613	0.953612	25.707008
23.251963	0.000631	0.030157	0.030164	74.272640	2.979718	1.624478	150.527496	150.527496	150.527496	3.553006	0.006717	2.830000	2.414328	0.949754	26.070642
23.586897	0.000650	0.030591	0.030598	74.511048	2.992211	1.622606	150.099050	150.099050	150.099050	3.553628	0.007148	2.830000	2.396635	0.945789	26.439065
23.926655	0.000669	0.031032	0.031039	74.749126	3.005162	1.620676	149.664359	149.664359	149.664359	3.554216	0.007609	2.830000	2.378525	0.941713	26.812315
24.271307	0.000688	0.031478	0.031486	74.986865	3.018591	1.618684	149.223336	149.223336	149.223336	3.554764	0.008100	2.830000	2.359995	0.937524	27.190429
24.620924	0.000708	0.031931	0.031939	75.224250	3.032518	1.616629	148.775893	148.775893	148.775893	3.555270	0.008624	2.830000	2.341036	0.933218	27.573439
24.975577	0.000728	0.032391	0.032399	75.461271	3.046966	1.614510	148.321944	148.321944	148.321944	3.555728	0.009184	2.830000	2.321644	0.928793	27.961378
25.335338	0.000750	0.032857	0.032866	75.697914	3.061958	1.612323	147.861400	147.861400	147.861400	3.556135	0.009782	2.830000	2.301813	0.924245	28.354275
25.700282	0.000771	0.033330	0.033339	75.934167	3.077518	1.610066	147.394172	147.394172	147.394172	3.556486	0.010420	2.830000	2.281538	0.919572	28.752157
26.070482	0.000794	0.033810	0.033819	76.170015	3.093671	1.607739	146.920171	146.920171	146.920171	3.556775	0.011103	2.830000	2.260812	0.914771	29.155048
26.446016	0.000817	0.034296	0.034306	76.405445	3.110445	1.605337	146.439308	146.439308	146.439308	3.556997	0.011832	2.830000	2.239632	0.909838	29.562967
26.826958	0.000840	0.034790	0.034800	76.640441	3.127869	1.602860	145.951493	145.951493	145.951493	3.557147	0.012612	2.830000	2.217993	0.904769	29.975933
27.213388	0.000865	0.035291	0.035301	76.874990	3.145973	1.600303	145.456635	145.456635	145.456635	3.557219	0.013446	2.830000	2.195891	0.899563	30.393958
27.605384	0.000890	0.035798	0.035810	77.109074	3.164788	1.597666	144.954645	144.954645	144.954645	3.557205	0.014338	2.830000	2.173322	0.894215	30.817052
28.003026	0.000916	0.036314	0.036325	77.342679	3.184350	1.594945	144.445433	144.445433	144.445433	3.557100	0.015292	2.830000	2.150282	0.888721	31.245219
28.406397	0.000942	0.036836	0.036848	77.575786	3.204693	1.592138	143.928908	143.928908	143.928908	3.556896	0.016314	2.830000	2.126769	0.883080	31.678458
28.815578	0.000970	0.037366	0.037379	77.808379	3.225857	1.589241	143.404980	143.404980	143.404980	3.556587	0.017408	2.830000	2.102780	0.877286	32.116763
29.230652	0.000998	0.037904	0.037917	78.040439	3.247882	1.586253	142.873561	142.873561	142.873561	3.556164	0.018579	2.830000	2.078314	0.871337	32.560121
29.651706	0.001027	0.038449	0.038463	78.271949	3.270810	1.583171	142.334559	142.334559	142.334559	3.555618	0.019835	2.830000	2.053369	0.865229	33.008515
30.078825	0.001056	0.039003	0.039017	78.502888	3.294687	1.579991	141.787887	141.787887	141.787887	3.554943	0.021180	2.830000	2.027945	0.858959	33.461917
30.512097	0.001087	0.039564	0.039579	78.733237	3.319563	1.576710	141.233457	141.233457	141.233457	3.554128	0.022623	2.830000	2.002042	0.852522	33.920294
30.951609	0.001119	0.040133	0.040149	78.962976	3.345488	1.573326	140.671182	140.671182	140.671182	3.553164	0.024170	2.830000	1.975660	0.845915	34.383603
31.397452	0.001151	0.040710	0.040727	79.192082	3.372518	1.569835	140.100974	140.100974	140.100974	3.552041	0.025831	2.830000	1.948801	0.839136	34.851792
31.849718	0.001184	0.041296	0.041313	79.420535	3.400712	1.566234	139.522749	139.522749	139.522749	3.550749	0.027613	2.830000	1.921468	0.832179	35.324799
32.308498	0.001219	0.041890	0.041908	79.648312	3.430132	1.562520	138.936423	138.936423	138.936423	3.549277	0.029527	2.830000	1.893665	0.825041	35.802549
32.773887	0.001254	0.042493	0.042511	79.875388	3.460846	1.558690	138.341914	138.341914	138.341914	3.547614	0.031584	2.830000	1.865395	0.817719	36.284957
33.245979	0.001291	0.043104	0.043123	80.101741	3.492925	1.554739	137.739141	137.739141	137.739141	3.545748	0.033794	2.830000	1.836664	0.810209	36.771925
33.724872	0.001328	0.043724	0.043744	80.327344	3.526446	1.550666	137.128026	137.128026	137.128026	3.543667	0.036171	2.830000	1.807478	0.802508	37.263337
34.210663	0.001367	0.044353	0.044374	80.552173	3.561491	1.546465	136.508491	136.508491	136.508491	3.541358	0.038727	2.830000	1.777845	0.794611	37.759065
34.703452	0.001406	0.044991	0.045013	80.776202	3.598148	1.542134	135.880464	135.880464	135.880464	3.538808	0.041479	2.830000	1.747774	0.786516	38.258961
35.203338	0.001447	0.045638	0.045661	80.999402	3.636513	1.537668	135.243871	135.243871	135.243871	3.536003	0.044442	2.830000	1.717275	0.778218	38.762859
35.710426	0.001489	0.046294	0.046318	81.221746	3.676687	1.533065	134.598645	134.598645	134.598645	3.532929	0.047634	2.830000	1.686359	0.769715	39.270571
36.224818	0.001532	0.046960	0.046985	81.443205	3.718781	1.528320	133.944720	133.944720	133.944720	3.529571	0.051075	2.830000	1.655039	0.761002	39.781888
36.746619	0.001576	0.047635	0.047661	81.663750	3.762911	1.523429	133.282035	133.282035	133.282035	3.525914	0.054785	2.830000	1.623329	0.752077	40.296574
37.275937	0.001622	0.048320	0.048347	81.883350	3.809207	1.518390	132.610530	132.610530	132.610530	3.521943	0.058788	2.830000	1.591246	0.742937	40.814366
37.812880	0.001669	0.049015	0.049043	82.101973	3.857806	1.513197	131.930152	131.930152	131.930152	3.517641	0.063110	2.830000	1.558806	0.733578	41.334972
38.357556	0.001718	0.049720	0.049749	82.319588	3.908857	1.507847	131.240851	131.240851	131.240851	3.512992	0.067778	2.830000	1.526029	0.723997	41.858064
38.910079	0.001767	0.050435	0.050466	82.536162	3.962523	1.502337	130.542582	130.542582	130.542582	3.507978	0.072823	2.830000	1.492935	0.714191	42.383281
39.470560	0.001819	0.051160	0.051192	82.751661	4.018979	1.496662	129.835304	129.835304	129.835304	3.502583	0.078278	2.830000	1.459547	0.704159	42.910218
40.039115	0.001871	0.051895	0.051929	82.966051	4.078417	1.490818	129.118984	129.118984	129.118984	3.496788	0.084181	2.830000	1.425890	0.693897	43.438428
40.615860	0.001926	0.052641	0.052676	83.179296	4.141044	1.484801	128.393591	128.393591	128.393591	3.490576	0.090571	2.830000	1.391988	0.683403	43.967412
41.200912	0.001982	0.053398	0.053435	83.391360	4.207088	1.478609	127.659104	127.659104	127.659104	3.483927	0.097493	2.830000	1.357871	0.672674	44.496619
41.794392	0.002039	0.054165	0.054204	83.602206	4.276796	1.472236	126.915505	126.915505	126.915505	3.476823	0.104995	2.830000	1.323569	0.661710	45.025434
42.396421	0.002098	0.054944	0.054984	83.811797	4.350441	1.465679	126.162786	126.162786	126.162786	3.469244	0.113131	2.830000	1.289113	0.650509	45.553177
43.007121	0.002159	0.055734	0.055775	84.020095	4.428320	1.458934	125.400945	125.400945	125.400945	3.461173	0.121961	2.830000	1.254537	0.639069	46.079090
43.626619	0.002222	0.056534	0.056578	84.227060	4.510761	1.451999	124.629987	124.629987	124.629987	3.452588	0.131548	2.830000	1.219878	0.627389	46.602332
44.255040	0.002286	0.057347	0.057392	84.432652	4.598124	1.444868	123.849926	123.849926	123.849926	3.443471	0.141964	2.830000	1.185174	0.615468	47.121967
44.892513	0.002352	0.058171	0.058218	84.636832	4.690808	1.437539	123.060784	123.060784	123.060784	3.433802	0.153287	2.830000	1.150464	0.603308	47.636950
45.539168	0.002421	0.059007	0.059056	84.839559	4.789252	1.430008	122.262592	122.262592	122.262592	3.423561	0.165603	2.830000	1.115791	0.590907	48.146117
46.195138	0.002491	0.059854	0.059906	85.040791	4.893944	1.422273	121.455390	121.455390	121.455390	3.412728	0.179006	2.830000	1.081199	0.578266	48.648170
46.860558	0.002563	0.060714	0.060768	85.240487	5.005428	1.414329	120.639229	120.639229	120.639229	3.401286	0.193601	2.830000	1.046734	0.565386	49.141651
47.535562	0.002637	0.061586	0.061643	85.438603	5.124307	1.406175	119.814168	119.814168	119.814168	3.389214	0.209500	2.830000	1.012444	0.552270	49.624931
48.220290	0.002714	0.062471	0.062530	85.635098	5.251256	1.397807	118.980278	118.980278	118.980278	3.376494	0.226828	2.830000	0.978379	0.538919	50.096175
48.914880	0.002792	0.063368	0.063430	85.829929	5.387032	1.389224	118.137640	118.137640	118.137640	3.363107	0.245722	2.830000	0.944590	0.525336	50.553319
49.619476	0.002873	0.064278	0.064342	86.023051	5.532484	1.380422	117.286347	117.286347	117.286347	3.349036	0.266329	2.830000	0.911130	0.511524	50.994033
50.334221	0.002957	0.065201	0.065268	86.214423	5.688569	1.371400	116.426501	116.426501	116.426501	3.334264	0.288812	2.830000	0.878055	0.497489	51.415675
51.059262	0.003042	0.066137	0.066207	86.404000	5.856368	1.362156	115.558219	115.558219	115.558219	3.318775	0.313344	2.830000	0.845421	0.483235	51.815246
51.794747	0.003130	0.067087	0.067160	86.591739	6.037109	1.352688	114.681629	114.681629	114.681629	3.302552	0.340115	2.830000	0.813285	0.468767	52.189326
52.540826	0.003221	0.068050	0.068126	86.777598	6.232185	1.342997	113.796868	113.796868	113.796868	3.285582	0.369327	2.830000	0.781706	0.454094	52.534005
53.297652	0.003315	0.069027	0.069106	86.961531	6.443187	1.333079	112.904091	112.904091	112.904091	3.267850	0.401195	2.830000	0.750744	0.439224	52.844787
54.065379	0.003411	0.070017	0.070100	87.143498	6.671937	1.322936	112.003461	112.003461	112.003461	3.249345	0.435948	2.830000	0.720460	0.424165	53.116491
54.844166	0.003509	0.071022	0.071109	87.323456	6.920528	1.312568	111.095156	111.095156	111.095156	3.230056	0.473823	2.830000	0.690914	0.408928	53.343110
55.634170	0.003611	0.072041	0.072132	87.501363	7.191370	1.301973	110.179367	110.179367	110.179367	3.209972	0.515066	2.830000	0.662168	0.393527	53.517650
56.435554	0.003716	0.073075	0.073169	87.677177	7.487254	1.291154	109.256296	109.256296	109.256296	3.189085	0.559924	2.830000	0.634283	0.377976	53.631928
57.248482	0.003823	0.074123	0.074222	87.850858	7.811413	1.280110	108.326159	108.326159	108.326159	3.167390	0.608641	2.830000	0.607322	0.362290	53.676314
58.073119	0.003934	0.075186	0.075289	88.022366	8.167609	1.268845	107.389186	107.389186	107.389186	3.144881	0.661450	2.830000	0.581345	0.346491	53.639414
58.909635	0.004048	0.076265	0.076372	88.191664	8.560222	1.257359	106.445618	106.445618	106.445618	3.121555	0.718561	2.830000	0.556412	0.330599	53.507668
59.758201	0.004166	0.077358	0.077471	88.358713	8.994366	1.245655	105.495710	105.495710	105.495710	3.097411	0.780148	2.830000	0.532584	0.314641	53.264842
60.618990	0.004286	0.078468	0.078585	88.523476	9.476001	1.233737	104.539727	104.539727	104.539727	3.072450	0.846332	2.830000	0.509919	0.298649	52.891382
61.492178	0.004410	0.079593	0.079715	88.685920	10.012061	1.221607	103.577949	103.577949	103.577949	3.046674	0.917161	2.830000	0.488473	0.282659	52.363600
62.377944	0.004538	0.080734	0.080861	88.846010	10.610558	1.209269	102.610665	102.610665	102.610665	3.020089	0.992590	2.830000	0.468302	0.266715	51.652646
63.276469	0.004670	0.081891	0.082024	89.003715	11.280649	1.196727	101.638179	101.638179	101.638179	2.992701	1.072450	2.830000	0.449458	0.250872	50.723217
64.187937	0.004805	0.083064	0.083203	89.159003	12.032564	1.183987	100.660801	100.660801	100.660801	2.964520	1.156430	2.830000	0.431991	0.235195	49.531980
65.112534	0.004944	0.084255	0.084400	89.311847	12.877301	1.171054	99.678856	99.678856	99.678856	2.935558	1.244047	2.830000	0.415951	0.219767	48.025713
66.050449	0.005087	0.085462	0.085613	89.462220	13.825815	1.157934	98.692675	98.692675	98.692675	2.905828	1.334623	2.830000	0.401382	0.204690	46.139273
67.001875	0.005235	0.086686	0.086844	89.610096	14.887314	1.144632	97.702602	97.702602	97.702602	2.875346	1.427280	2.830000	0.388325	0.190095	43.793741
67.967006	0.005386	0.087927	0.088092	89.755455	16.065990	1.131156	96.708986	96.708986	96.708986	2.844130	1.520925	2.830000	0.376818	0.176148	40.895585
68.946038	0.005542	0.089187	0.089359	89.898274	17.355276	1.117513	95.712187	95.712187	95.712187	2.812202	1.614275	2.830000	0.366897	0.163063	37.338555
69.939174	0.005703	0.090464	0.090643	90.038537	18.728699	1.103710	94.712569	94.712569	94.712569	2.779583	1.705878	2.830000	0.358592	0.151105	33.011481
70.946615	0.005868	0.091758	0.091946	90.176226	20.127476	1.089755	93.710503	93.710503	93.710503	2.746298	1.794167	2.830000	0.351928	0.140604	27.816739
71.968567	0.006038	0.093072	0.093267	90.311330	21.448494	1.075658	92.706368	92.706368	92.706368	2.712374	1.877528	2.830000	0.346929	0.131944	21.704219
73.005241	0.006213	0.094404	0.094608	90.443836	22.542972	1.061426	91.700544	91.700544	91.700544	2.677840	1.954381	2.830000	0.343612	0.125538	14.719926
74.056847	0.006393	0.095754	0.095967	90.573736	23.241309	1.047069	90.693417	90.693417	90.693417	2.642726	2.023271	2.830000	0.341990	0.121766	7.052506
75.123601	0.006578	0.097124	0.097346	90.701024	23.409629	1.032597	89.685374	89.685374	89.685374	2.607065	2.082952	2.830000	0.342072	0.120890	-0.958389
76.205721	0.006768	0.098513	0.098745	90.825697	23.011736	1.018019	88.676804	88.676804	88.676804	2.570890	2.132462	2.830000	0.343861	0.122981	-8.883131
77.303429	0.006964	0.099921	0.100164	90.947753	22.128259	1.003346	87.668098	87.668098	87.668098	2.534236	2.171175	2.830000	0.347356	0.127891	-16.315332
78.416948	0.007166	0.101350	0.101603	91.067195	20.915588	0.988588	86.659645	86.659645	86.659645	2.497141	2.198829	2.830000	0.352551	0.135306	-22.970893
79.546508	0.007373	0.102798	0.103062	91.184026	19.540546	0.973755	85.651834	85.651834	85.651834	2.459642	2.215514	2.830000	0.359437	0.144827	-28.720632
80.692338	0.007587	0.104267	0.104543	91.298254	18.135235	0.958857	84.645050	84.645050	84.645050	2.421779	2.221650	2.830000	0.367997	0.156050	-33.562162
81.854673	0.007806	0.105756	0.106044	91.409887	16.784236	0.943907	83.639678	83.639678	83.639678	2.383589	2.217931	2.830000	0.378212	0.168611	-37.569185
83.033751	0.008032	0.107267	0.107567	91.518937	15.531911	0.928915	82.636096	82.636096	82.636096	2.345115	2.205258	2.830000	0.390058	0.182206	-40.847701
84.229813	0.008265	0.108798	0.109112	91.625418	14.395432	0.913891	81.634678	81.634678	81.634678	2.306397	2.184674	2.830000	0.403506	0.196590	-43.508462
85.443104	0.008504	0.110351	0.110679	91.729348	13.376100	0.898847	80.635793	80.635793	80.635793	2.267475	2.157295	2.830000	0.418523	0.211571	-45.653304
86.673872	0.008750	0.111926	0.112268	91.830743	12.467089	0.883795	79.639803	79.639803	79.639803	2.228392	2.124250	2.830000	0.435074	0.226998	-47.370115
87.922369	0.009003	0.113523	0.113879	91.929626	11.658107	0.868743	78.647060	78.647060	78.647060	2.189188	2.086632	2.830000	0.453118	0.242750	-48.732296
89.188849	0.009263	0.115142	0.115514	92.026020	10.937949	0.853705	77.657912	77.657912	77.657912	2.149904	2.045469	2.830000	0.472611	0.258732	-49.800133
90.473572	0.009531	0.116784	0.117172	92.119949	10.295784	0.838690	76.672695	76.672695	76.672695	2.110582	2.001690	2.830000	0.493506	0.274870	-50.622784
91.776802	0.009807	0.118449	0.118854	92.211441	9.721725	0.823709	75.691736	75.691736	75.691736	2.071260	1.956122	2.830000	0.515754	0.291101	-51.240276
93.098803	0.010090	0.120136	0.120559	92.300525	9.207021	0.808772	74.715353	74.715353	74.715353	2.031979	1.909478	2.830000	0.539302	0.307374	-51.685251
94.439848	0.010382	0.121848	0.122289	92.387231	8.744060	0.793890	73.743851	73.743851	73.743851	1.992777	1.862365	2.830000	0.564096	0.323648	-51.984438
95.800210	0.010682	0.123583	0.124044	92.471591	8.326274	0.779073	72.777527	72.777527	72.777527	1.953692	1.815283	2.830000	0.590078	0.339888	-52.159828
97.180167	0.010991	0.125342	0.125823	92.553639	7.948030	0.764329	71.816664	71.816664	71.816664	1.914760	1.768642	2.830000	0.617189	0.356063	-52.229619
98.580001	0.011309	0.127126	0.127628	92.633411	7.604496	0.749670	70.861533	70.861533	70.861533	1.876017	1.722765	2.830000	0.645371	0.372148	-52.208961
100.000000	0.011636	0.128935	0.129459	92.710943	7.291533	0.735103	69.912394	69.912394	69.912394	1.837496	1.677905	2.830000	0.674561	0.388121	-52.110540
101.440453	0.011972	0.130768	0.131315	92.786272	7.005585	0.720637	68.969494	68.969494	68.969494	1.799231	1.634250	2.830000	0.704698	0.403963	-51.945043
102.901655	0.012318	0.132627	0.133198	92.859437	6.743592	0.706282	68.033065	68.033065	68.033065	1.761253	1.591939	2.830000	0.735719	0.419658	-51.721527
104.383905	0.012674	0.134512	0.135108	92.930478	6.502913	0.692044	67.103331	67.103331	67.103331	1.723591	1.551064	2.830000	0.767560	0.435190	-51.447707
105.887506	0.013040	0.136423	0.137044	92.999434	6.281261	0.677931	66.180497	66.180497	66.180497	1.686274	1.511685	2.830000	0.800159	0.450546	-51.130195
107.412766	0.013417	0.138360	0.139009	93.066347	6.076649	0.663952	65.264761	65.264761	65.264761	1.649328	1.473832	2.830000	0.833453	0.465717	-50.774679
108.959997	0.013804	0.140323	0.141001	93.131259	5.887347	0.650112	64.356304	64.356304	64.356304	1.612777	1.437511	2.830000	0.867379	0.480692	-50.386084
110.529514	0.014203	0.142314	0.143021	93.194210	5.711840	0.636418	63.455294	63.455294	63.455294	1.576647	1.402711	2.830000	0.901876	0.495462	-49.968685
112.121640	0.014613	0.144332	0.145070	93.255245	5.548800	0.622876	62.561890	62.561890	62.561890	1.540957	1.369410	2.830000	0.936883	0.510020	-49.526214
113.736699	0.015035	0.146378	0.147148	93.314404	5.397057	0.609492	61.676234	61.676234	61.676234	1.505727	1.337570	2.830000	0.972340	0.524360	-49.061940
115.375023	0.015469	0.148452	0.149255	93.371732	5.255577	0.596271	60.798457	60.798457	60.798457	1.470977	1.307152	2.830000	1.008188	0.538476	-48.578735
117.036946	0.015915	0.150554	0.151393	93.427270	5.123447	0.583218	59.928680	59.928680	59.928680	1.436722	1.278106	2.830000	1.044370	0.552362	-48.079134
118.722808	0.016375	0.152684	0.153560	93.481062	4.999853	0.570338	59.067009	59.067009	59.067009	1.402978	1.250383	2.830000	1.080830	0.566017	-47.565377
120.432955	0.016847	0.154844	0.155758	93.533151	4.884070	0.557633	58.213540	58.213540	58.213540	1.369758	1.223928	2.830000	1.117515	0.579435	-47.039453
122.167735	0.017333	0.157034	0.157987	93.583578	4.775450	0.545109	57.368356	57.368356	57.368356	1.337074	1.198689	2.830000	1.154372	0.592614	-46.503129
123.927504	0.017833	0.159252	0.160248	93.632386	4.673414	0.532768	56.531532	56.531532	56.531532	1.304935	1.174609	2.830000	1.191350	0.605553	-45.957982
125.712621	0.018347	0.161502	0.162540	93.679617	4.577439	0.520613	55.703128	55.703128	55.703128	1.273352	1.151637	2.830000	1.228402	0.618250	-45.405419
127.523453	0.018876	0.163781	0.164865	93.725312	4.487057	0.508646	54.883197	54.883197	54.883197	1.242331	1.129719	2.830000	1.265480	0.630703	-44.846700
129.360368	0.019420	0.166091	0.167223	93.769512	4.401844	0.496871	54.071781	54.071781	54.071781	1.211878	1.108804	2.830000	1.302540	0.642912	-44.282952
131.223743	0.019980	0.168433	0.169614	93.812257	4.321415	0.485288	53.268913	53.268913	53.268913	1.181999	1.088842	2.830000	1.339539	0.654878	-43.715189
133.113960	0.020556	0.170806	0.172038	93.853589	4.245424	0.473899	52.474615	52.474615	52.474615	1.152697	1.069785	2.830000	1.376438	0.666600	-43.144321
135.031404	0.021148	0.173210	0.174497	93.893545	4.173553	0.462706	51.688902	51.688902	51.688902	1.123974	1.051589	2.830000	1.413198	0.678079	-42.571165
136.976468	0.021757	0.175647	0.176990	93.932164	4.105516	0.451708	50.911780	50.911780	50.911780	1.095832	1.034208	2.830000	1.449782	0.689316	-41.996457
138.949549	0.022384	0.178117	0.179518	93.969485	4.041050	0.440908	50.143247	50.143247	50.143247	1.068271	1.017602	2.830000	1.486157	0.700313	-41.420861
140.951052	0.023028	0.180620	0.182082	94.005544	3.979915	0.430304	49.383292	49.383292	49.383292	1.041290	1.001731	2.830000	1.522291	0.711071	-40.844973
142.981386	0.023691	0.183155	0.184681	94.040378	3.921890	0.419898	48.631899	48.631899	48.631899	1.014888	0.986556	2.830000	1.558153	0.721591	-40.269329
145.040966	0.024373	0.185725	0.187317	94.074023	3.866775	0.409689	47.889045	47.889045	47.889045	0.989062	0.972043	2.830000	1.593716	0.731876	-39.694415
147.130213	0.025074	0.188328	0.189990	94.106513	3.814384	0.399676	47.154699	47.154699	47.154699	0.963809	0.958157	2.830000	1.628954	0.741929	-39.120664
149.249555	0.025796	0.190966	0.192701	94.137883	3.764546	0.389858	46.428824	46.428824	46.428824	0.939124	0.944867	2.830000	1.663842	0.751751	-38.548469
151.399424	0.026537	0.193639	0.195449	94.168165	3.717105	0.380236	45.711378	45.711378	45.711378	0.915004	0.932141	2.830000	1.698358	0.761345	-37.978182
153.580262	0.027300	0.196347	0.198236	94.197393	3.671915	0.370808	45.002315	45.002315	45.002315	0.891443	0.919951	2.830000	1.732482	0.770715	-37.410117
155.792513	0.028085	0.199090	0.201061	94.225598	3.628843	0.361572	44.301581	44.301581	44.301581	0.868434	0.908271	2.830000	1.766195	0.779863	-36.844557
158.036631	0.028892	0.201869	0.203926	94.252810	3.587764	0.352527	43.609120	43.609120	43.609120	0.845973	0.897074	2.830000	1.799480	0.788792	-36.281756
160.313075	0.029722	0.204684	0.206831	94.279059	3.548563	0.343671	42.924869	42.924869	42.924869	0.824051	0.886337	2.830000	1.832321	0.797506	-35.721938
162.622309	0.030576	0.207536	0.209776	94.304376	3.511134	0.335004	42.248764	42.248764	42.248764	0.802662	0.876036	2.830000	1.864704	0.806007	-35.165304
164.964807	0.031453	0.210424	0.212762	94.328786	3.475377	0.326522	41.580735	41.580735	41.580735	0.781798	0.866150	2.830000	1.896618	0.814300	-34.612032
167.341048	0.032356	0.213350	0.215790	94.352319	3.441201	0.318225	40.920709	40.920709	40.920709	0.761451	0.856659	2.830000	1.928050	0.822387	-34.062278
169.751517	0.033284	0.216314	0.218859	94.375001	3.408518	0.310109	40.268610	40.268610	40.268610	0.741612	0.847543	2.830000	1.958992	0.830273	-33.516180
172.196708	0.034239	0.219315	0.221972	94.396857	3.377250	0.302173	39.624360	39.624360	39.624360	0.722274	0.838784	2.830000	1.989435	0.837960	-32.973858
174.677121	0.035221	0.222355	0.225127	94.417912	3.347321	0.294414	38.987877	38.987877	38.987877	0.703428	0.830366	2.830000	2.019371	0.845452	-32.435415
177.193263	0.036230	0.225433	0.228326	94.438191	3.318662	0.286830	38.359077	38.359077	38.359077	0.685065	0.822271	2.830000	2.048796	0.852753	-31.900943
179.745648	0.037268	0.228550	0.231568	94.457716	3.291206	0.279419	37.737874	37.737874	37.737874	0.667175	0.814484	2.830000	2.077703	0.859867	-31.370516
182.334800	0.038336	0.231706	0.234856	94.476510	3.264894	0.272178	37.124180	37.124180	37.124180	0.649750	0.806991	2.830000	2.106089	0.866797	-30.844197
184.961247	0.039433	0.234902	0.238189	94.494596	3.239668	0.265104	36.517905	36.517905	36.517905	0.632781	0.799778	2.830000	2.133951	0.873546	-30.322040
187.625527	0.040562	0.238138	0.241568	94.511993	3.215474	0.258195	35.918957	35.918957	35.918957	0.616258	0.792832	2.830000	2.161288	0.880119	-29.804085
190.328185	0.041722	0.241414	0.244993	94.528722	3.192261	0.251448	35.327243	35.327243	35.327243	0.600172	0.786140	2.830000	2.188097	0.886519	-29.290364
193.069773	0.042915	0.244731	0.248465	94.544803	3.169982	0.244860	34.742671	34.742671	34.742671	0.584514	0.779692	2.830000	2.214378	0.892749	-28.780901
195.850852	0.044142	0.248088	0.251985	94.560254	3.148593	0.238430	34.165143	34.165143	34.165143	0.569275	0.773475	2.830000	2.240132	0.898814	-28.275712
198.671992	0.045403	0.251487	0.255552	94.575094	3.128052	0.232153	33.594565	33.594565	33.594565	0.554444	0.767479	2.830000	2.265359	0.904716	-27.774802
201.533769	0.046700	0.254927	0.259169	94.589340	3.108320	0.226027	33.030840	33.030840	33.030840	0.540014	0.761695	2.830000	2.290062	0.910460	-27.278175
204.436768	0.048033	0.258408	0.262835	94.603009	3.089358	0.220050	32.473870	32.473870	32.473870	0.525975	0.756112	2.830000	2.314243	0.916048	-26.785823
207.381584	0.049403	0.261932	0.266550	94.616117	3.071133	0.214219	31.923556	31.923556	31.923556	0.512317	0.750723	2.830000	2.337903	0.921484	-26.297736
210.368818	0.050812	0.265498	0.270316	94.628679	3.053610	0.208530	31.379802	31.379802	31.379802	0.499032	0.745517	2.830000	2.361047	0.926772	-25.813897
213.399082	0.052260	0.269106	0.274133	94.640710	3.036759	0.202981	30.842507	30.842507	30.842507	0.486111	0.740487	2.830000	2.383679	0.931915	-25.334286
216.472995	0.053749	0.272757	0.278002	94.652224	3.020550	0.197570	30.311574	30.311574	30.311574	0.473545	0.735626	2.830000	2.405801	0.936915	-24.858875
219.591187	0.055279	0.276450	0.281923	94.663236	3.004956	0.192293	29.786903	29.786903	29.786903	0.461326	0.730926	2.830000	2.427419	0.941778	-24.387636
222.754295	0.056852	0.280187	0.285897	94.673757	2.989949	0.187149	29.268396	29.268396	29.268396	0.449444	0.726379	2.830000	2.448538	0.946504	-23.920536
225.962966	0.058469	0.283967	0.289924	94.683801	2.975506	0.182133	28.755953	28.755953	28.755953	0.437892	0.721979	2.830000	2.469163	0.951099	-23.457536
229.217857	0.060131	0.287790	0.294005	94.693380	2.961601	0.177243	28.249475	28.249475	28.249475	0.426661	0.717721	2.830000	2.489298	0.955564	-22.998597
232.519632	0.061839	0.291657	0.298141	94.702504	2.948213	0.172478	27.748864	27.748864	27.748864	0.415743	0.713597	2.830000	2.508950	0.959903	-22.543677
235.868968	0.063594	0.295568	0.302332	94.711185	2.935321	0.167833	27.254022	27.254022	27.254022	0.405129	0.709601	2.830000	2.528125	0.964119	-22.092729
239.266550	0.065399	0.299523	0.306579	94.719434	2.922904	0.163307	26.764851	26.764851	26.764851	0.394813	0.705729	2.830000	2.546828	0.968215	-21.645706
242.713072	0.067253	0.303521	0.310883	94.727259	2.910943	0.158896	26.281253	26.281253	26.281253	0.384786	0.701975	2.830000	2.565066	0.972194	-21.202558
246.209240	0.069158	0.307564	0.315243	94.734671	2.899420	0.154599	25.803130	25.803130	25.803130	0.375041	0.698334	2.830000	2.582844	0.976057	-20.763233
249.755769	0.071116	0.311651	0.319662	94.741678	2.888317	0.150412	25.330386	25.330386	25.330386	0.365569	0.694801	2.830000	2.600170	0.979809	-20.327677
253.353383	0.073128	0.315782	0.324138	94.748289	2.877619	0.146333	24.862925	24.862925	24.862925	0.356365	0.691371	2.830000	2.617050	0.983452	-19.895835
257.002820	0.075196	0.319957	0.328674	94.754512	2.867309	0.142361	24.400651	24.400651	24.400651	0.347421	0.688040	2.830000	2.633490	0.986988	-19.467651
260.704825	0.077320	0.324176	0.333269	94.760354	2.857373	0.138491	23.943467	23.943467	23.943467	0.338730	0.684804	2.830000	2.649497	0.990420	-19.043066
264.460155	0.079502	0.328439	0.337924	94.765822	2.847797	0.134722	23.491281	23.491281	23.491281	0.330285	0.681658	2.830000	2.665078	0.993751	-18.622022
268.269580	0.081745	0.332746	0.342640	94.770924	2.838566	0.131052	23.043997	23.043997	23.043997	0.322080	0.678599	2.830000	2.680239	0.996982	-18.204458
272.133877	0.084048	0.337098	0.347418	94.775666	2.829669	0.127478	22.601522	22.601522	22.601522	0.314107	0.675623	2.830000	2.694988	1.000117	-17.790313
276.053838	0.086415	0.341493	0.352257	94.780052	2.821093	0.123998	22.163763	22.163763	22.163763	0.306361	0.672725	2.830000	2.709330	1.003157	-17.379524
280.030263	0.088845	0.345932	0.357159	94.784090	2.812826	0.120609	21.730628	21.730628	21.730628	0.298836	0.669904	2.830000	2.723272	1.006105	-16.972031
284.063968	0.091343	0.350414	0.362124	94.787784	2.804858	0.117310	21.302024	21.302024	21.302024	0.291525	0.667154	2.830000	2.736821	1.008964	-16.567768
288.155776	0.093907	0.354940	0.367152	94.791139	2.797178	0.114098	20.877862	20.877862	20.877862	0.284423	0.664474	2.830000	2.749984	1.011734	-16.166673
292.306525	0.096542	0.359508	0.372245	94.794159	2.789775	0.110971	20.458049	20.458049	20.458049	0.277523	0.661860	2.830000	2.762767	1.014419	-15.768681
296.517063	0.099247	0.364120	0.377403	94.796848	2.782640	0.107928	20.042498	20.042498	20.042498	0.270821	0.659308	2.830000	2.775177	1.017020	-15.373727
300.788252	0.102025	0.368773	0.382627	94.799210	2.775764	0.104965	19.631118	19.631118	19.631118	0.264310	0.656817	2.830000	2.787219	1.019539	-14.981746
305.120965	0.104879	0.373469	0.387916	94.801249	2.769138	0.102081	19.223821	19.223821	19.223821	0.257986	0.654383	2.830000	2.798901	1.021979	-14.592673
309.516090	0.107808	0.378206	0.393272	94.802966	2.762754	0.099274	18.820519	18.820519	18.820519	0.251843	0.652003	2.830000	2.810228	1.024340	-14.206443
313.974523	0.110817	0.382985	0.398695	94.804366	2.756604	0.096543	18.421125	18.421125	18.421125	0.245876	0.649675	2.830000	2.821207	1.026626	-13.822989
318.497179	0.113905	0.387803	0.404185	94.805450	2.750680	0.093884	18.025552	18.025552	18.025552	0.240081	0.647396	2.830000	2.831844	1.028837	-13.442246
323.084981	0.117076	0.392662	0.409744	94.806220	2.744974	0.091297	17.633715	17.633715	17.633715	0.234452	0.645164	2.830000	2.842144	1.030975	-13.064147
327.738869	0.120331	0.397560	0.415372	94.806678	2.739481	0.088780	17.245528	17.245528	17.245528	0.228985	0.642977	2.830000	2.852113	1.033043	-12.688627
332.459793	0.123673	0.402497	0.421069	94.806825	2.734192	0.086330	16.860906	16.860906	16.860906	0.223675	0.640832	2.830000	2.861757	1.035041	-12.315619
337.248720	0.127102	0.407471	0.426835	94.806662	2.729103	0.083947	16.479765	16.479765	16.479765	0.218518	0.638726	2.830000	2.871083	1.036971	-11.945058
342.106630	0.130623	0.412483	0.432671	94.806191	2.724206	0.081628	16.102022	16.102022	16.102022	0.213510	0.636659	2.830000	2.880094	1.038835	-11.576877
347.034515	0.134235	0.417531	0.438579	94.805410	2.719496	0.079371	15.727593	15.727593	15.727593	0.208646	0.634627	2.830000	2.888797	1.040634	-11.211010
352.033384	0.137942	0.422614	0.444557	94.804321	2.714968	0.077176	15.356396	15.356396	15.356396	0.203923	0.632628	2.830000	2.897196	1.042369	-10.847392
357.104260	0.141746	0.427732	0.450607	94.802924	2.710616	0.075040	14.988349	14.988349	14.988349	0.199336	0.630661	2.830000	2.905298	1.044043	-10.485957
362.248179	0.145649	0.432882	0.456728	94.801216	2.706436	0.072962	14.623372	14.623372	14.623372	0.194882	0.628724	2.830000	2.913106	1.045656	-10.126639
367.466194	0.149654	0.438065	0.462922	94.799199	2.702421	0.070941	14.261381	14.261381	14.261381	0.190556	0.626814	2.830000	2.920626	1.047209	-9.769373
372.759372	0.153761	0.443278	0.469189	94.796871	2.698569	0.068975	13.902299	13.902299	13.902299	0.186356	0.624929	2.830000	2.927862	1.048704	-9.414093
378.128796	0.157975	0.448521	0.475528	94.794230	2.694873	0.067062	13.546044	13.546044	13.546044	0.182278	0.623069	2.830000	2.934819	1.050142	-9.060734
383.575563	0.162296	0.453792	0.481941	94.791274	2.691331	0.065201	13.192536	13.192536	13.192536	0.178319	0.621230	2.830000	2.941501	1.051524	-8.709231
389.100789	0.166728	0.459089	0.488427	94.788002	2.687938	0.063392	12.841698	12.841698	12.841698	0.174474	0.619412	2.830000	2.947913	1.052852	-8.359520
394.705603	0.171273	0.464412	0.494988	94.784411	2.684691	0.061631	12.493450	12.493450	12.493450	0.170741	0.617613	2.830000	2.954059	1.054125	-8.011536
400.391152	0.175933	0.469758	0.501622	94.780498	2.681585	0.059919	12.147714	12.147714	12.147714	0.167117	0.615830	2.830000	2.959942	1.055346	-7.665215
406.158599	0.180710	0.475125	0.508331	94.776261	2.678617	0.058254	11.804411	11.804411	11.804411	0.163598	0.614063	2.830000	2.965567	1.056515	-7.320493
412.009123	0.185608	0.480512	0.515114	94.771696	2.675785	0.056634	11.463466	11.463466	11.463466	0.160183	0.612309	2.830000	2.970937	1.057634	-6.977305
417.943921	0.190628	0.485917	0.521972	94.766800	2.673084	0.055059	11.124800	11.124800	11.124800	0.156867	0.610567	2.830000	2.976057	1.058702	-6.635589
423.964207	0.195772	0.491338	0.528904	94.761569	2.670512	0.053527	10.788336	10.788336	10.788336	0.153648	0.608835	2.830000	2.980929	1.059722	-6.295281
430.071212	0.201044	0.496772	0.535911	94.755998	2.668066	0.052037	10.453998	10.453998	10.453998	0.150523	0.607112	2.830000	2.985556	1.060693	-5.956317
436.266186	0.206446	0.502217	0.542993	94.750083	2.665744	0.050588	10.121709	10.121709	10.121709	0.147490	0.605396	2.830000	2.989943	1.061617	-5.618637
442.550395	0.211980	0.507671	0.550150	94.743820	2.663543	0.049179	9.791393	9.791393	9.791393	0.144547	0.603686	2.830000	2.994091	1.062495	-5.282176
448.925126	0.217649	0.513131	0.557382	94.737202	2.661459	0.047809	9.462975	9.462975	9.462975	0.141690	0.601980	2.830000	2.998005	1.063326	-4.946872
455.391681	0.223456	0.518594	0.564688	94.730224	2.659492	0.046476	9.136379	9.136379	9.136379	0.138917	0.600277	2.830000	3.001686	1.064113	-4.612665
461.951385	0.229402	0.524059	0.572069	94.722881	2.657639	0.045180	8.811529	8.811529	8.811529	0.136226	0.598575	2.830000	3.005137	1.064855	-4.279492
468.605578	0.235490	0.529520	0.579523	94.715167	2.655898	0.043920	8.488349	8.488349	8.488349	0.133615	0.596872	2.830000	3.008361	1.065553	-3.947291
475.355621	0.241723	0.534977	0.587052	94.707074	2.654267	0.042695	8.166765	8.166765	8.166765	0.131081	0.595167	2.830000	3.011361	1.066208	-3.616003
482.202895	0.248103	0.540425	0.594655	94.698596	2.652744	0.041503	7.846701	7.846701	7.846701	0.128622	0.593459	2.830000	3.014137	1.066820	-3.285565
489.148802	0.254632	0.545861	0.602330	94.689725	2.651328	0.040345	7.528081	7.528081	7.528081	0.126237	0.591746	2.830000	3.016694	1.067390	-2.955919
496.194760	0.261314	0.551281	0.610079	94.680455	2.650017	0.039218	7.210832	7.210832	7.210832	0.123923	0.590027	2.830000	3.019031	1.067918	-2.627002
503.342213	0.268149	0.556682	0.617899	94.670776	2.648809	0.038123	6.894878	6.894878	6.894878	0.121678	0.588301	2.830000	3.021153	1.068405	-2.298757
510.592621	0.275142	0.562061	0.625792	94.660681	2.647703	0.037058	6.580143	6.580143	6.580143	0.119501	0.586565	2.830000	3.023059	1.068851	-1.971123
517.947468	0.282293	0.567412	0.633755	94.650161	2.646698	0.036022	6.266553	6.266553	6.266553	0.117389	0.584818	2.830000	3.024751	1.069257	-1.644041
525.408258	0.289606	0.572732	0.641789	94.639206	2.645793	0.035015	5.954032	5.954032	5.954032	0.115340	0.583059	2.830000	3.026232	1.069623	-1.317453
532.976517	0.297082	0.578016	0.649892	94.627807	2.644986	0.034036	5.642505	5.642505	5.642505	0.113354	0.581287	2.830000	3.027502	1.069949	-0.991299
540.653794	0.304723	0.583260	0.658064	94.615953	2.644277	0.033084	5.331897	5.331897	5.331897	0.111428	0.579500	2.830000	3.028563	1.070236	-0.665522
548.441658	0.312532	0.588459	0.666304	94.603635	2.643665	0.032159	5.022133	5.022133	5.022133	0.109560	0.577696	2.830000	3.029415	1.070484	-0.340064
556.341702	0.320510	0.593609	0.674610	94.590842	2.643149	0.031259	4.713135	4.713135	4.713135	0.107750	0.575874	2.830000	3.030060	1.070693	-0.014867
564.355543	0.328660	0.598703	0.682981	94.577562	2.642728	0.030384	4.404829	4.404829	4.404829	0.105995	0.574033	2.830000	3.030498	1.070863	0.310127
572.484820	0.336983	0.603738	0.691417	94.563783	2.642402	0.029534	4.097139	4.097139	4.097139	0.104294	0.572170	2.830000	3.030730	1.070995	0.634973
580.731195	0.345481	0.608707	0.699915	94.549493	2.642170	0.028707	3.789987	3.789987	3.789987	0.102646	0.570286	2.830000	3.030757	1.071089	0.959728
589.096355	0.354154	0.613605	0.708474	94.534679	2.642032	0.027903	3.483298	3.483298	3.483298	0.101048	0.568377	2.830000	3.030580	1.071145	1.284449
597.582011	0.363006	0.618425	0.717094	94.519329	2.641987	0.027121	3.176994	3.176994	3.176994	0.099501	0.566443	2.830000	3.030197	1.071163	1.609192
606.189899	0.372037	0.623163	0.725771	94.503427	2.642035	0.026361	2.870998	2.870998	2.870998	0.098001	0.564482	2.830000	3.029611	1.071144	1.934011
614.921780	0.381248	0.627811	0.734504	94.486960	2.642176	0.025623	2.565232	2.565232	2.565232	0.096549	0.562493	2.830000	3.028820	1.071087	2.258962
623.779440	0.390640	0.632364	0.743292	94.469914	2.642410	0.024904	2.259619	2.259619	2.259619	0.095143	0.560473	2.830000	3.027825	1.070992	2.584099
632.764690	0.400214	0.636814	0.752132	94.452272	2.642737	0.024206	1.954080	1.954080	1.954080	0.093781	0.558422	2.830000	3.026626	1.070859	2.909478
641.879368	0.409970	0.641154	0.761022	94.434018	2.643157	0.023527	1.648536	1.648536	1.648536	0.092463	0.556338	2.830000	3.025222	1.070689	3.235151
651.125339	0.419910	0.645378	0.769959	94.415136	2.643670	0.022867	1.342907	1.342907	1.342907	0.091187	0.554219	2.830000	3.023614	1.070482	3.561173
660.504493	0.430032	0.649478	0.778942	94.395610	2.644275	0.022226	1.037115	1.037115	1.037115	0.089952	0.552064	2.830000	3.021800	1.070236	3.887596
670.018750	0.440338	0.653448	0.787967	94.375420	2.644975	0.021602	0.731078	0.731078	0.731078	0.088758	0.549871	2.830000	3.019781	1.069953	4.214473
679.670056	0.450827	0.657278	0.797031	94.354548	2.645768	0.020995	0.424716	0.424716	0.424716	0.087602	0.547639	2.830000	3.017555	1.069633	4.541857
689.460384	0.461497	0.660961	0.806132	94.332976	2.646656	0.020406	0.117948	0.117948	0.117948	0.086484	0.545365	2.830000	3.015122	1.069274	4.869799
699.391737	0.472350	0.664490	0.815267	94.310683	2.647638	0.019833	-0.189309	-0.189309	-0.189309	0.085403	0.543048	2.830000	3.012481	1.068877	5.198351
709.466146	0.483382	0.667855	0.824432	94.287650	2.648716	0.019275	-0.497138	-0.497138	-0.497138	0.084358	0.540687	2.830000	3.009631	1.068442	5.527563
719.685673	0.494594	0.671049	0.833624	94.263854	2.649890	0.018734	-0.805620	-0.805620	-0.805620	0.083348	0.538280	2.830000	3.006571	1.067969	5.857486
730.052407	0.505982	0.674063	0.842840	94.239273	2.651161	0.018207	-1.114840	-1.114840	-1.114840	0.082372	0.535825	2.830000	3.003300	1.067457	6.188170
740.568469	0.517546	0.676887	0.852074	94.213886	2.652530	0.017695	-1.424882	-1.424882	-1.424882	0.081429	0.533320	2.830000	2.999817	1.066906	6.519665
751.236010	0.529282	0.679514	0.861324	94.187667	2.653998	0.017197	-1.735832	-1.735832	-1.735832	0.080518	0.530764	2.830000	2.996121	1.066316	6.852019
762.057212	0.541187	0.681933	0.870584	94.160594	2.655565	0.016713	-2.047775	-2.047775	-2.047775	0.079639	0.528156	2.830000	2.992209	1.065687	7.185281
773.034288	0.553259	0.684136	0.879851	94.132640	2.657233	0.016243	-2.360796	-2.360796	-2.360796	0.078790	0.525492	2.830000	2.988081	1.065018	7.519498
784.169484	0.565494	0.686113	0.889120	94.103780	2.659003	0.015786	-2.674984	-2.674984	-2.674984	0.077971	0.522772	2.830000	2.983735	1.064309	7.854719
795.465078	0.577887	0.687855	0.898386	94.073986	2.660876	0.015341	-2.990426	-2.990426	-2.990426	0.077181	0.519993	2.830000	2.979169	1.063560	8.190989
806.923378	0.590433	0.689352	0.907644	94.043231	2.662853	0.014909	-3.307210	-3.307210	-3.307210	0.076418	0.517155	2.830000	2.974382	1.062770	8.528356
818.546731	0.603129	0.690594	0.916888	94.011486	2.664937	0.014489	-3.625425	-3.625425	-3.625425	0.075683	0.514255	2.830000	2.969371	1.061939	8.866863
830.337512	0.615967	0.691571	0.926114	93.978720	2.667127	0.014080	-3.945160	-3.945160	-3.945160	0.074975	0.511291	2.830000	2.964136	1.061067	9.206557
842.298134	0.628942	0.692274	0.935314	93.944903	2.669427	0.013683	-4.266507	-4.266507	-4.266507	0.074292	0.508262	2.830000	2.958674	1.060153	9.547481
854.431043	0.642048	0.692693	0.944483	93.910003	2.671837	0.013297	-4.589555	-4.589555	-4.589555	0.073634	0.505166	2.830000	2.952983	1.059196	9.889679
866.738721	0.655276	0.692817	0.953616	93.873988	2.674359	0.012921	-4.914396	-4.914396	-4.914396	0.073001	0.502000	2.830000	2.947061	1.058197	10.233194
879.223685	0.668619	0.692638	0.962704	93.836822	2.676996	0.012556	-5.241122	-5.241122	-5.241122	0.072391	0.498764	2.830000	2.940906	1.057155	10.578067
891.888489	0.682068	0.692144	0.971741	93.798471	2.679748	0.012201	-5.569826	-5.569826	-5.569826	0.071804	0.495456	2.830000	2.934516	1.056069	10.924340
904.735724	0.695615	0.691327	0.980721	93.758898	2.682618	0.011856	-5.900600	-5.900600	-5.900600	0.071239	0.492073	2.830000	2.927889	1.054939	11.272054
917.768017	0.709249	0.690177	0.989636	93.718067	2.685609	0.011520	-6.233539	-6.233539	-6.233539	0.070695	0.488614	2.830000	2.921022	1.053765	11.621248
930.988035	0.722960	0.688684	0.998477	93.675937	2.688721	0.011194	-6.568735	-6.568735	-6.568735	0.070172	0.485078	2.830000	2.913913	1.052545	11.971960
944.398480	0.736737	0.686839	1.007238	93.632470	2.691958	0.010877	-6.906282	-6.906282	-6.906282	0.069669	0.481462	2.830000	2.906561	1.051280	12.324230
958.002097	0.750567	0.684632	1.015910	93.587624	2.695321	0.010569	-7.246276	-7.246276	-7.246276	0.069185	0.477765	2.830000	2.898961	1.049968	12.678093
971.801667	0.764439	0.682056	1.024484	93.541356	2.698814	0.010269	-7.588810	-7.588810	-7.588810	0.068720	0.473985	2.830000	2.891113	1.048609	13.033586
985.800014	0.778339	0.679102	1.032952	93.493623	2.702438	0.009977	-7.933979	-7.933979	-7.933979	0.068272	0.470121	2.830000	2.883014	1.047203	13.390744
1000.000000	0.792252	0.675760	1.041305	93.444378	2.706196	0.009694	-8.281877	-8.281877	-8.281877	0.067842	0.466171	2.830000	2.874661	1.045748	13.749601
1014.404530	0.806165	0.672025	1.049533	93.393577	2.710091	0.009418	-8.632598	-8.632598	-8.632598	0.067428	0.462134	2.830000	2.866052	1.044245	14.110189
1029.016551	0.820061	0.667888	1.057626	93.341170	2.714126	0.009150	-8.986237	-8.986237	-8.986237	0.067030	0.458008	2.830000	2.857184	1.042693	14.472541
1043.839051	0.833924	0.663342	1.065576	93.287108	2.718303	0.008889	-9.342887	-9.342887	-9.342887	0.066647	0.453792	2.830000	2.848056	1.041091	14.836688
1058.875063	0.847737	0.658382	1.073370	93.231341	2.722626	0.008636	-9.702640	-9.702640	-9.702640	0.066279	0.449484	2.830000	2.838665	1.039437	15.202658
1074.127661	0.861481	0.653002	1.081000	93.173815	2.727098	0.008389	-10.065589	-10.065589	-10.065589	0.065924	0.445084	2.830000	2.829008	1.037733	15.570480
1089.599965	0.875140	0.647197	1.088455	93.114477	2.731722	0.008149	-10.431825	-10.431825	-10.431825	0.065581	0.440590	2.830000	2.819083	1.035977	15.940182
1105.295141	0.888692	0.640963	1.095722	93.053272	2.736500	0.007916	-10.801437	-10.801437	-10.801437	0.065251	0.436001	2.830000	2.808888	1.034168	16.311788
1121.216399	0.902118	0.634296	1.102792	92.990143	2.741437	0.007689	-11.174514	-11.174514	-11.174514	0.064933	0.431316	2.830000	2.798420	1.032305	16.685323
1137.366994	0.915398	0.627196	1.109652	92.925032	2.746537	0.007469	-11.551143	-11.551143	-11.551143	0.064624	0.426535	2.830000	2.787678	1.030389	17.060811
1153.750232	0.928509	0.619659	1.116291	92.857879	2.751801	0.007254	-11.931410	-11.931410	-11.931410	0.064326	0.421657	2.830000	2.776659	1.028417	17.438271
1170.369462	0.941429	0.611686	1.122697	92.788622	2.757236	0.007046	-12.315395	-12.315395	-12.315395	0.064037	0.416682	2.830000	2.765361	1.026390	17.817724
1187.228084	0.954136	0.603277	1.128858	92.717199	2.762843	0.006843	-12.703181	-12.703181	-12.703181	0.063755	0.411609	2.830000	2.753782	1.024307	18.199189
1204.329547	0.966607	0.594436	1.134761	92.643545	2.768628	0.006645	-13.094845	-13.094845	-13.094845	0.063482	0.406438	2.830000	2.741920	1.022167	18.582681
1221.677349	0.978817	0.585164	1.140394	92.567596	2.774593	0.006453	-13.490460	-13.490460	-13.490460	0.063214	0.401169	2.830000	2.729773	1.019969	18.968216
1239.275037	0.990742	0.575467	1.145745	92.489285	2.780744	0.006266	-13.890098	-13.890098	-13.890098	0.062952	0.395803	2.830000	2.717339	1.017713	19.355807
1257.126212	1.002357	0.565351	1.150800	92.408543	2.787085	0.006085	-14.293826	-14.293826	-14.293826	0.062695	0.390340	2.830000	2.704617	1.015398	19.745464
1275.234525	1.013638	0.554823	1.155548	92.325300	2.793620	0.005908	-14.701707	-14.701707	-14.701707	0.062442	0.384780	2.830000	2.691606	1.013023	20.137198
1293.603680	1.024558	0.543893	1.159974	92.239488	2.800353	0.005736	-15.113799	-15.113799	-15.113799	0.062192	0.379126	2.830000	2.678303	1.010587	20.531015
1312.237433	1.035093	0.532572	1.164067	92.151034	2.807289	0.005569	-15.530155	-15.530155	-15.530155	0.061943	0.373377	2.830000	2.664708	1.008090	20.926921
1331.139597	1.045217	0.520872	1.167813	92.059865	2.814434	0.005406	-15.950823	-15.950823	-15.950823	0.061696	0.367537	2.830000	2.650820	1.005531	21.324919
1350.314038	1.054905	0.508807	1.171200	91.965910	2.821791	0.005247	-16.375844	-16.375844	-16.375844	0.061449	0.361606	2.830000	2.636636	1.002909	21.725010
1369.764677	1.064130	0.496395	1.174215	91.869094	2.829366	0.005093	-16.805253	-16.805253	-16.805253	0.061201	0.355586	2.830000	2.622158	1.000224	22.127193
1389.495494	1.072869	0.483653	1.176846	91.769344	2.837164	0.004944	-17.239078	-17.239078	-17.239078	0.060951	0.349481	2.830000	2.607384	0.997475	22.531465
1409.510524	1.081095	0.470601	1.179081	91.666585	2.845190	0.004798	-17.677340	-17.677340	-17.677340	0.060697	0.343293	2.830000	2.592313	0.994661	22.937819
1429.813862	1.088787	0.457262	1.180909	91.560745	2.853450	0.004656	-18.120051	-18.120051	-18.120051	0.060440	0.337026	2.830000	2.576946	0.991782	23.346247
1450.409659	1.095919	0.443661	1.182317	91.451748	2.861949	0.004518	-18.567215	-18.567215	-18.567215	0.060178	0.330683	2.830000	2.561282	0.988837	23.756738
1471.302129	1.102470	0.429822	1.183295	91.339523	2.870692	0.004383	-19.018827	-19.018827	-19.018827	0.059910	0.324268	2.830000	2.545323	0.985825	24.169279
1492.495545	1.108418	0.415776	1.183833	91.223998	2.879686	0.004252	-19.474872	-19.474872	-19.474872	0.059635	0.317785	2.830000	2.529068	0.982746	24.583854
1513.994242	1.113743	0.401552	1.183920	91.105103	2.888936	0.004125	-19.935325	-19.935325	-19.935325	0.059352	0.311240	2.830000	2.512517	0.979599	25.000443
1535.802619	1.118427	0.387184	1.183550	90.982770	2.898448	0.004001	-20.400150	-20.400150	-20.400150	0.059059	0.304638	2.830000	2.495673	0.976384	25.419027
1557.925134	1.122452	0.372705	1.182712	90.856933	2.908229	0.003881	-20.869301	-20.869301	-20.869301	0.058756	0.297984	2.830000	2.478537	0.973101	25.839579
1580.366314	1.125804	0.358154	1.181401	90.727529	2.918285	0.003763	-21.342718	-21.342718	-21.342718	0.058442	0.291284	2.830000	2.461109	0.969748	26.262073
1603.130749	1.128469	0.343567	1.179611	90.594500	2.928621	0.003649	-21.820332	-21.820332	-21.820332	0.058116	0.284545	2.830000	2.443393	0.966325	26.686479
1626.223094	1.130438	0.328987	1.177337	90.457790	2.939244	0.003538	-22.302058	-22.302058	-22.302058	0.057776	0.277774	2.830000	2.425389	0.962832	27.112764
1649.648074	1.131701	0.314455	1.174576	90.317351	2.950162	0.003430	-22.787802	-22.787802	-22.787802	0.057423	0.270979	2.830000	2.407102	0.959269	27.540892
1673.410480	1.132253	0.300015	1.171326	90.173138	2.961380	0.003325	-23.277454	-23.277454	-23.277454	0.057054	0.264166	2.830000	2.388533	0.955636	27.970823
1697.515172	1.132092	0.285714	1.167589	90.025115	2.972905	0.003223	-23.770890	-23.770890	-23.770890	0.056669	0.257345	2.830000	2.369685	0.951931	28.402516
1721.967081	1.131218	0.271596	1.163365	89.873252	2.984745	0.003123	-24.267975	-24.267975	-24.267975	0.056268	0.250523	2.830000	2.350563	0.948155	28.835925
1746.771208	1.129636	0.257711	1.158660	89.717528	2.996906	0.003026	-24.768558	-24.768558	-24.768558	0.055849	0.243710	2.830000	2.331170	0.944307	29.271002
1771.932627	1.127354	0.244107	1.153480	89.557934	3.009395	0.002932	-25.272475	-25.272475	-25.272475	0.055412	0.236915	2.830000	2.311511	0.940388	29.707697
1797.456484	1.124383	0.230834	1.147833	89.394468	3.022219	0.002840	-25.779548	-25.779548	-25.779548	0.054956	0.230146	2.830000	2.291590	0.936398	30.145955
1823.348001	1.120739	0.217940	1.141733	89.227143	3.035386	0.002751	-26.289585	-26.289585	-26.289585	0.054481	0.223415	2.830000	2.271412	0.932336	30.585719
1849.612473	1.116441	0.205476	1.135192	89.055986	3.048903	0.002664	-26.802382	-26.802382	-26.802382	0.053986	0.216731	2.830000	2.250982	0.928203	31.026929
1876.255272	1.111515	0.193491	1.128231	88.881036	3.062778	0.002579	-27.317720	-27.317720	-27.317720	0.053470	0.210104	2.830000	2.230307	0.923998	31.469523
1903.281848	1.105988	0.182032	1.120868	88.702351	3.077017	0.002497	-27.835369	-27.835369	-27.835369	0.052935	0.203543	2.830000	2.209392	0.919722	31.913434
1930.697729	1.099895	0.171149	1.113131	88.520005	3.091628	0.002417	-28.355087	-28.355087	-28.355087	0.052379	0.197060	2.830000	2.188244	0.915375	32.358595
1958.508523	1.093272	0.160885	1.105046	88.334092	3.106619	0.002339	-28.876619	-28.876619	-28.876619	0.051802	0.190665	2.830000	2.166870	0.910958	32.804935
1986.719919	1.086162	0.151285	1.096647	88.144726	3.121998	0.002264	-29.399702	-29.399702	-29.399702	0.051205	0.184367	2.830000	2.145277	0.906471	33.252381
2015.337686	1.078612	0.142390	1.087970	87.952043	3.137772	0.002190	-29.924064	-29.924064	-29.924064	0.050587	0.178177	2.830000	2.123472	0.901914	33.700857
2044.367679	1.070674	0.134237	1.079056	87.756200	3.153949	0.002119	-30.449423	-30.449423	-30.449423	0.049950	0.172105	2.830000	2.101464	0.897288	34.150285
2073.815835	1.062404	0.126862	1.069952	87.557383	3.170536	0.002050	-30.975492	-30.975492	-30.975492	0.049294	0.166159	2.830000	2.079261	0.892594	34.600587
2103.688178	1.053862	0.120294	1.060705	87.355797	3.187541	0.001982	-31.501978	-31.501978	-31.501978	0.048619	0.160349	2.830000	2.056871	0.887832	35.051680
2133.990819	1.045112	0.114559	1.051372	87.151678	3.204973	0.001916	-32.028585	-32.028585	-32.028585	0.047926	0.154684	2.830000	2.034303	0.883003	35.503481
2164.729954	1.036223	0.109677	1.042011	86.945285	3.222838	0.001853	-32.555014	-32.555014	-32.555014	0.047216	0.149172	2.830000	2.011568	0.878108	35.955906
2195.911873	1.027265	0.105662	1.032685	86.736902	3.241146	0.001791	-33.080968	-33.080968	-33.080968	0.046490	0.143821	2.830000	1.988673	0.873148	36.408869
2227.542952	1.018312	0.102524	1.023460	86.526842	3.259902	0.001731	-33.606151	-33.606151	-33.606151	0.045750	0.138636	2.830000	1.965629	0.868124	36.862283
2259.629662	1.009441	0.100264	1.014409	86.315439	3.279117	0.001673	-34.130271	-34.130271	-34.130271	0.044997	0.133625	2.830000	1.942446	0.863037	37.316060
2292.178566	1.000730	0.098875	1.005603	86.103049	3.298796	0.001616	-34.653040	-34.653040	-34.653040	0.044231	0.128794	2.830000	1.919134	0.857889	37.770112
2325.196322	0.992258	0.098345	0.997120	85.890051	3.318949	0.001561	-35.174183	-35.174183	-35.174183	0.043456	0.124145	2.830000	1.895704	0.852680	38.224350
2358.689683	0.984104	0.098652	0.989036	85.676835	3.339583	0.001508	-35.693431	-35.693431	-35.693431	0.042672	0.119683	2.830000	1.872165	0.847411	38.678685
2392.665500	0.976346	0.099766	0.981430	85.463808	3.360706	0.001456	-36.210529	-36.210529	-36.210529	0.041882	0.115411	2.830000	1.848530	0.842085	39.133029
2427.130723	0.969063	0.101650	0.974380	85.251381	3.382326	0.001406	-36.725239	-36.725239	-36.725239	0.041087	0.111331	2.830000	1.824808	0.836702	39.587291
2462.092401	0.962329	0.104257	0.967960	85.039965	3.404451	0.001357	-37.237337	-37.237337	-37.237337	0.040289	0.107442	2.830000	1.801011	0.831265	40.041384
2497.557686	0.956215	0.107530	0.962242	84.829967	3.427088	0.001310	-37.746620	-37.746620	-37.746620	0.039491	0.103745	2.830000	1.777150	0.825774	40.495220
2533.533832	0.950787	0.111407	0.957292	84.621778	3.450247	0.001265	-38.252905	-38.252905	-38.252905	0.038694	0.100238	2.830000	1.753235	0.820231	40.948712
2570.028197	0.946108	0.115814	0.953170	84.415769	3.473934	0.001221	-38.756032	-38.756032	-38.756032	0.037900	0.096918	2.830000	1.729279	0.814638	41.401774
2607.048246	0.942231	0.120671	0.949927	84.212278	3.498158	0.001178	-39.255866	-39.255866	-39.255866	0.037112	0.093783	2.830000	1.705292	0.808997	41.854320
2644.601552	0.939203	0.125892	0.947603	84.011606	3.522927	0.001136	-39.752298	-39.752298	-39.752298	0.036332	0.090827	2.830000	1.681284	0.803309	42.306267
2682.695795	0.937061	0.131380	0.946226	83.814004	3.548249	0.001096	-40.245245	-40.245245	-40.245245	0.035562	0.088044	2.830000	1.657268	0.797576	42.757531
2721.338768	0.935832	0.137037	0.945812	83.619669	3.574132	0.001058	-40.734653	-40.734653	-40.734653	0.034803	0.085429	2.830000	1.633255	0.791801	43.208033
2760.538375	0.935532	0.142757	0.946362	83.428733	3.600585	0.001020	-41.220496	-41.220496	-41.220496	0.034058	0.082974	2.830000	1.609254	0.785983	43.657693
2800.302634	0.936166	0.148431	0.947860	83.241261	3.627616	0.000984	-41.702778	-41.702778	-41.702778	0.033328	0.080671	2.830000	1.585277	0.780127	44.106431
2840.639679	0.937724	0.153950	0.950277	83.057243	3.655233	0.000949	-42.181531	-42.181531	-42.181531	0.032615	0.078510	2.830000	1.561334	0.774232	44.554173
2881.557759	0.940183	0.159201	0.953566	82.876593	3.683445	0.000915	-42.656815	-42.656815	-42.656815	0.031921	0.076482	2.830000	1.537437	0.768302	45.000843
2923.065245	0.943508	0.164074	0.957668	82.699147	3.712261	0.000882	-43.128718	-43.128718	-43.128718	0.031246	0.074576	2.830000	1.513594	0.762339	45.446368
2965.170628	0.947647	0.168462	0.962504	82.524665	3.741689	0.000850	-43.597353	-43.597353	-43.597353	0.030593	0.072783	2.830000	1.489817	0.756343	45.890677
3007.882518	0.952535	0.172263	0.967986	82.352832	3.771737	0.000820	-44.062859	-44.062859	-44.062859	0.029961	0.071090	2.830000	1.466115	0.750317	46.333700
3051.209653	0.958093	0.175381	0.974013	82.183265	3.802416	0.000790	-44.525394	-44.525394	-44.525394	0.029352	0.069487	2.830000	1.442498	0.744264	46.775369
3095.160895	0.964228	0.177729	0.980471	82.015518	3.833734	0.000762	-44.985138	-44.985138	-44.985138	0.028766	0.067963	2.830000	1.418976	0.738184	47.215617
3139.745234	0.970835	0.179233	0.987241	81.849090	3.865701	0.000734	-45.442285	-45.442285	-45.442285	0.028203	0.066505	2.830000	1.395557	0.732079	47.654379
3184.971790	0.977795	0.179830	0.994194	81.683434	3.898325	0.000707	-45.897041	-45.897041	-45.897041	0.027663	0.065104	2.830000	1.372251	0.725953	48.091591
3230.849813	0.984983	0.179473	1.001200	81.517968	3.931617	0.000682	-46.349620	-46.349620	-46.349620	0.027146	0.063747	2.830000	1.349066	0.719806	48.527192
3277.388687	0.992262	0.178134	1.008125	81.352085	3.965586	0.000657	-46.800240	-46.800240	-46.800240	0.026651	0.062425	2.830000	1.326011	0.713640	48.961120
3324.597932	0.999491	0.175801	1.014834	81.185165	4.000243	0.000633	-47.249116	-47.249116	-47.249116	0.026177	0.061127	2.830000	1.303095	0.707457	49.393315
3372.487204	1.006527	0.172483	1.021198	81.016586	4.035596	0.000610	-47.696459	-47.696459	-47.696459	0.025723	0.059846	2.830000	1.280325	0.701259	49.823718
3421.066299	1.013223	0.168210	1.027091	80.845736	4.071657	0.000587	-48.142463	-48.142463	-48.142463	0.025287	0.058572	2.830000	1.257709	0.695049	50.252271
3470.345152	1.019439	0.163036	1.032394	80.672025	4.108437	0.000566	-48.587310	-48.587310	-48.587310	0.024868	0.057298	2.830000	1.235254	0.688826	50.678917
3520.333844	1.025039	0.157034	1.036998	80.494894	4.145945	0.000545	-49.031155	-49.031155	-49.031155	0.024463	0.056019	2.830000	1.212969	0.682595	51.103600
3571.042600	1.029897	0.150298	1.040806	80.313831	4.184192	0.000525	-49.474127	-49.474127	-49.474127	0.024071	0.054729	2.830000	1.190859	0.676355	51.526263
3622.481792	1.033900	0.142946	1.043735	80.128379	4.223190	0.000506	-49.916320	-49.916320	-49.916320	0.023689	0.053425	2.830000	1.168932	0.670110	51.946852
3674.661941	1.036953	0.135111	1.045718	79.938146	4.262950	0.000487	-50.357793	-50.357793	-50.357793	0.023316	0.052104	2.830000	1.147194	0.663860	52.365311
3727.593720	1.038981	0.126946	1.046708	79.742819	4.303482	0.000469	-50.798562	-50.798562	-50.798562	0.022948	0.050766	2.830000	1.125652	0.657607	52.781587
3781.287957	1.039934	0.118614	1.046677	79.542172	4.344800	0.000452	-51.238598	-51.238598	-51.238598	0.022583	0.049411	2.830000	1.104311	0.651353	53.195625
3835.755635	1.039786	0.110290	1.045619	79.336078	4.386913	0.000435	-51.677826	-51.677826	-51.677826	0.022218	0.048040	2.830000	1.083177	0.645101	53.607372
3891.007893	1.038542	0.102155	1.043554	79.124516	4.429834	0.000418	-52.116124	-52.116124	-52.116124	0.021853	0.046657	2.830000	1.062256	0.638850	54.016775
3947.056035	1.036236	0.094389	1.040526	78.907580	4.473574	0.000403	-52.553324	-52.553324	-52.553324	0.021483	0.045266	2.830000	1.041552	0.632604	54.423782
4003.911523	1.032934	0.087169	1.036605	78.685486	4.518147	0.000388	-52.989212	-52.989212	-52.989212	0.021109	0.043872	2.830000	1.021072	0.626363	54.828340
4061.585988	1.028733	0.080661	1.031890	78.458578	4.563563	0.000373	-53.423532	-53.423532	-53.423532	0.020727	0.042481	2.830000	1.000818	0.620130	55.230399
4120.091227	1.023760	0.075016	1.026505	78.227327	4.609835	0.000359	-53.855992	-53.855992	-53.855992	0.020338	0.041101	2.830000	0.980797	0.613905	55.629907
4179.439206	1.018171	0.070363	1.020599	77.992333	4.656975	0.000345	-54.286269	-54.286269	-54.286269	0.019940	0.039737	2.830000	0.961013	0.607691	56.026816
4239.642065	1.012143	0.066803	1.014345	77.754313	4.704995	0.000332	-54.714019	-54.714019	-54.714019	0.019533	0.038399	2.830000	0.941468	0.601488	56.421077
4300.712118	1.005877	0.064405	1.007936	77.514094	4.753908	0.000320	-55.138882	-55.138882	-55.138882	0.019117	0.037093	2.830000	0.922168	0.595300	56.812644
4362.661857	0.999583	0.063202	1.001579	77.272591	4.803726	0.000307	-55.560497	-55.560497	-55.560497	0.018693	0.035827	2.830000	0.903114	0.589126	57.201470
4425.503952	0.993483	0.063188	0.995491	77.030783	4.854461	0.000296	-55.978510	-55.978510	-55.978510	0.018262	0.034607	2.830000	0.884312	0.582969	57.587513
4489.251258	0.987796	0.064311	0.989888	76.789678	4.906126	0.000284	-56.392585	-56.392585	-56.392585	0.017825	0.033440	2.830000	0.865762	0.576830	57.970731
4553.916814	0.982733	0.066479	0.984979	76.550275	4.958734	0.000273	-56.802418	-56.802418	-56.802418	0.017385	0.032329	2.830000	0.847469	0.570710	58.351085
4619.513847	0.978485	0.069559	0.980955	76.313519	5.012296	0.000263	-57.207747	-57.207747	-57.207747	0.016944	0.031280	2.830000	0.829434	0.564611	58.728538
4686.055775	0.975221	0.073377	0.977977	76.080251	5.066827	0.000253	-57.608359	-57.608359	-57.608359	0.016504	0.030293	2.830000	0.811659	0.558535	59.103055
4753.556208	0.973071	0.077725	0.976170	75.851160	5.122337	0.000243	-58.004105	-58.004105	-58.004105	0.016069	0.029370	2.830000	0.794146	0.552482	59.474606
4822.028953	0.972124	0.082370	0.975608	75.626739	5.178841	0.000233	-58.394899	-58.394899	-58.394899	0.015641	0.028511	2.830000	0.776896	0.546454	59.843160
4891.488015	0.972422	0.087057	0.976311	75.407245	5.236350	0.000224	-58.780728	-58.780728	-58.780728	0.015222	0.027711	2.830000	0.759911	0.540453	60.208692
4961.947603	0.973949	0.091525	0.978240	75.192674	5.294879	0.000215	-59.161652	-59.161652	-59.161652	0.014816	0.026969	2.830000	0.743191	0.534479	60.571179
5033.422128	0.976637	0.095515	0.981297	74.982750	5.354440	0.000207	-59.537801	-59.537801	-59.537801	0.014425	0.026278	2.830000	0.726738	0.528533	60.930600
5105.926210	0.980360	0.098784	0.985324	74.776924	5.415047	0.000199	-59.909373	-59.909373	-59.909373	0.014050	0.025633	2.830000	0.710550	0.522618	61.286937
5179.474679	0.984937	0.101118	0.990114	74.574398	5.476713	0.000191	-60.276622	-60.276622	-60.276622	0.013694	0.025025	2.830000	0.694629	0.516733	61.640174
5254.082580	0.990143	0.102343	0.995418	74.374160	5.539453	0.000184	-60.639851	-60.639851	-60.639851	0.013357	0.024449	2.830000	0.678975	0.510881	61.990298
5329.765172	0.995711	0.102339	1.000956	74.175035	5.603280	0.000176	-60.999396	-60.999396	-60.999396	0.013040	0.023895	2.830000	0.663586	0.505061	62.337298
5406.537936	1.001349	0.101044	1.006434	73.975741	5.668209	0.000170	-61.355606	-61.355606	-61.355606	0.012741	0.023355	2.830000	0.648462	0.499276	62.681164
5484.416576	1.006753	0.098471	1.011557	73.774962	5.734255	0.000163	-61.708831	-61.708831	-61.708831	0.012460	0.022823	2.830000	0.633602	0.493525	63.021889
5563.417021	1.011622	0.094699	1.016044	73.571413	5.801432	0.000156	-62.059397	-62.059397	-62.059397	0.012196	0.022292	2.830000	0.619006	0.487811	63.359466
5643.555431	1.015678	0.089883	1.019647	73.363915	5.869756	0.000150	-62.407591	-62.407591	-62.407591	0.011945	0.021755	2.830000	0.604672	0.482132	63.693890
5724.848197	1.018682	0.084244	1.022159	73.151460	5.939242	0.000144	-62.753641	-62.753641	-62.753641	0.011706	0.021210	2.830000	0.590599	0.476492	64.025156
5807.311946	1.020453	0.078059	1.023434	72.933272	6.009906	0.000139	-63.097700	-63.097700	-63.097700	0.011475	0.020654	2.830000	0.576785	0.470889	64.353261
5890.963548	1.020881	0.071650	1.023392	72.708865	6.081765	0.000133	-63.439836	-63.439836	-63.439836	0.011249	0.020086	2.830000	0.563228	0.465325	64.678199
5975.820111	1.019938	0.065361	1.022030	72.478085	6.154833	0.000128	-63.780023	-63.780023	-63.780023	0.011024	0.019507	2.830000	0.549927	0.459801	64.999970
6061.898993	1.017689	0.059542	1.019429	72.241139	6.229129	0.000123	-64.118143	-64.118143	-64.118143	0.010798	0.018920	2.830000	0.536880	0.454317	65.318569
6149.217802	1.014286	0.054519	1.015750	71.998609	6.304668	0.000118	-64.453988	-64.453988	-64.453988	0.010569	0.018330	2.830000	0.524085	0.448874	65.633995
6237.794396	1.009968	0.050574	1.011234	71.751442	6.381468	0.000113	-64.787272	-64.787272	-64.787272	0.010334	0.017740	2.830000	0.511540	0.443472	65.946246
6327.646895	1.005048	0.047923	1.006189	71.500917	6.459545	0.000109	-65.117652	-65.117652	-65.117652	0.010093	0.017158	2.830000	0.499242	0.438111	66.255320
6418.793677	0.999889	0.046688	1.000978	71.248579	6.538917	0.000104	-65.444748	-65.444748	-65.444748	0.009844	0.016590	2.830000	0.487190	0.432793	66.561218
6511.253386	0.994886	0.046892	0.995991	70.996144	6.619601	0.000100	-65.768171	-65.768171	-65.768171	0.009589	0.016042	2.830000	0.475380	0.427518	66.863940
6605.044933	0.990432	0.048444	0.991616	70.745374	6.701614	0.000096	-66.087558	-66.087558	-66.087558	0.009329	0.015520	2.830000	0.463810	0.422286	67.163488
6700.187504	0.986887	0.051145	0.988211	70.497930	6.784975	0.000092	-66.402593	-66.402593	-66.402593	0.009067	0.015028	2.830000	0.452479	0.417098	67.459866
6796.700558	0.984544	0.054694	0.986062	70.255210	6.869700	0.000089	-66.713046	-66.713046	-66.713046	0.008805	0.014568	2.830000	0.441382	0.411954	67.753078
6894.603838	0.983604	0.058709	0.985354	70.018200	6.955808	0.000085	-67.018783	-67.018783	-67.018783	0.008546	0.014142	2.830000	0.430517	0.406854	68.043132
6993.917368	0.984148	0.062761	0.986147	69.787351	7.043316	0.000082	-67.319793	-67.319793	-67.319793	0.008294	0.013750	2.830000	0.419882	0.401799	68.330035
7094.661463	0.986126	0.066402	0.988359	69.562499	7.132244	0.000078	-67.616184	-67.616184	-67.616184	0.008053	0.013388	2.830000	0.409474	0.396790	68.613799
7196.856730	0.989352	0.069215	0.991770	69.342855	7.222610	0.000075	-67.908183	-67.908183	-67.908183	0.007824	0.013052	2.830000	0.399288	0.391825	68.894436
7300.524071	0.993517	0.070849	0.996040	69.127059	7.314432	0.000072	-68.196117	-68.196117	-68.196117	0.007610	0.012738	2.830000	0.389323	0.386906	69.171960
7405.684692	0.998208	0.071062	1.000734	68.913301	7.407731	0.000069	-68.480386	-68.480386	-68.480386	0.007411	0.012437	2.830000	0.379576	0.382033	69.446385
7512.360102	1.002948	0.069750	1.005370	68.699499	7.502525	0.000066	-68.761427	-68.761427	-68.761427	0.007228	0.012145	2.830000	0.370042	0.377206	69.717728
7620.572122	1.007241	0.066968	1.009465	68.483509	7.598835	0.000064	-69.039674	-69.039674	-69.039674	0.007059	0.011854	2.830000	0.360719	0.372426	69.986006
7730.342884	1.010626	0.062930	1.012583	68.263345	7.696681	0.000061	-69.315509	-69.315509	-69.315509	0.006903	0.011560	2.830000	0.351603	0.367691	70.251237
7841.694843	1.012729	0.057998	1.014388	68.037402	7.796085	0.000059	-69.589227	-69.589227	-69.589227	0.006755	0.011260	2.830000	0.342692	0.363003	70.513437
7954.650775	1.013311	0.052648	1.014677	67.804638	7.897067	0.000056	-69.860998	-69.860998	-69.860998	0.006613	0.010951	2.830000	0.333981	0.358361	70.772625
8069.233784	1.012305	0.047417	1.013415	67.564719	7.999649	0.000054	-70.130851	-70.130851	-70.130851	0.006472	0.010633	2.830000	0.325468	0.353766	71.028818
8185.467307	1.009834	0.042845	1.010743	67.318096	8.103852	0.000052	-70.398663	-70.398663	-70.398663	0.006329	0.010310	2.830000	0.317150	0.349217	71.282034
8303.375120	1.006206	0.039409	1.006978	67.066008	8.209700	0.000050	-70.664177	-70.664177	-70.664177	0.006181	0.009984	2.830000	0.309022	0.344714	71.532288
8422.981339	1.001886	0.037453	1.002586	66.810384	8.317214	0.000048	-70.927031	-70.927031	-70.927031	0.006027	0.009662	2.830000	0.301083	0.340258	71.779599
8544.310429	0.997441	0.037137	0.998132	66.553655	8.426418	0.000046	-71.186802	-71.186802	-71.186802	0.005867	0.009348	2.830000	0.293327	0.335849	72.023984
8667.387209	0.993472	0.038409	0.994214	66.298460	8.537333	0.000044	-71.443069	-71.443069	-71.443069	0.005700	0.009048	2.830000	0.285753	0.331485	72.265460
8792.236851	0.990530	0.040992	0.991378	66.047285	8.649983	0.000042	-71.695469	-71.695469	-71.695469	0.005531	0.008766	2.830000	0.278357	0.327168	72.504045
8918.884894	0.989036	0.044418	0.990033	65.802077	8.764391	0.000040	-71.943753	-71.943753	-71.943753	0.005361	0.008506	2.830000	0.271136	0.322898	72.739760
9047.357242	0.989207	0.048081	0.990375	65.563896	8.880581	0.000039	-72.187830	-72.187830	-72.187830	0.005195	0.008267	2.830000	0.264086	0.318673	72.972624
9177.680175	0.991016	0.051327	0.992344	65.332693	8.998577	0.000037	-72.427787	-72.427787	-72.427787	0.005036	0.008048	2.830000	0.257204	0.314494	73.202659
9309.880348	0.994179	0.053548	0.995620	65.107258	9.118403	0.000036	-72.663885	-72.663885	-72.663885	0.004888	0.007846	2.830000	0.250487	0.310361	73.429888
9443.984802	0.998188	0.054285	0.999663	64.885371	9.240083	0.000034	-72.896525	-72.896525	-72.896525	0.004752	0.007655	2.830000	0.243933	0.306274	73.654334
9580.020968	1.002381	0.053313	1.003798	64.664145	9.363644	0.000033	-73.126192	-73.126192	-73.126192	0.004630	0.007471	2.830000	0.237536	0.302233	73.876021
9718.016671	1.006046	0.050693	1.007323	64.440495	9.489109	0.000031	-73.353380	-73.353380	-73.353380	0.004519	0.007287	2.830000	0.231295	0.298237	74.094975
9858.000137	1.008546	0.046776	1.009630	64.211662	9.616507	0.000030	-73.578514	-73.578514	-73.578514	0.004418	0.007100	2.830000	0.225207	0.294286	74.311219
10000.000000	1.009432	0.042156	1.010312	63.975705	9.745862	0.000029	-73.801875	-73.801875	-73.801875	0.004322	0.006907	2.830000	0.219267	0.290380	74.524778
10144.045304	1.008544	0.037576	1.009244	63.731879	9.877203	0.000028	-74.023552	-74.023552	-74.023552	0.004228	0.006707	2.830000	0.213474	0.286518	74.735676
10290.165513	1.006053	0.033793	1.006620	63.480838	10.010557	0.000027	-74.243422	-74.243422	-74.243422	0.004131	0.006503	2.830000	0.207823	0.282702	74.943936
10438.390514	1.002447	0.031431	1.002939	63.224600	10.145951	0.000025	-74.461179	-74.461179	-74.461179	0.004030	0.006297	2.830000	0.202312	0.278929	75.149581
10588.750628	0.998453	0.030845	0.998929	62.966248	10.283414	0.000024	-74.676385	-74.676385	-74.676385	0.003921	0.006095	2.830000	0.196939	0.275200	75.352633
10741.276608	0.994896	0.032037	0.995412	62.709381	10.422974	0.000023	-74.888570	-74.888570	-74.888570	0.003807	0.005902	2.830000	0.191700	0.271516	75.553116
10895.999653	0.992533	0.034631	0.993137	62.457368	10.564660	0.000022	-75.097328	-75.097328	-75.097328	0.003689	0.005722	2.830000	0.186591	0.267874	75.751052
11052.951411	0.991877	0.037937	0.992602	62.212570	10.708500	0.000022	-75.302417	-75.302417	-75.302417	0.003571	0.005557	2.830000	0.181612	0.264276	75.946465
11212.163986	0.993073	0.041089	0.993923	61.975717	10.854525	0.000021	-75.503818	-75.503818	-75.503818	0.003458	0.005406	2.830000	0.176757	0.260721	76.139379
11373.669943	0.995842	0.043232	0.996780	61.745636	11.002764	0.000020	-75.701753	-75.701753	-75.701753	0.003353	0.005268	2.830000	0.172026	0.257208	76.329818
11537.502317	0.999522	0.043734	1.000478	61.519449	11.153248	0.000019	-75.896645	-75.896645	-75.896645	0.003258	0.005139	2.830000	0.167415	0.253738	76.517809
11703.694619	1.003211	0.042347	1.004105	61.293232	11.306007	0.000018	-76.089029	-76.089029	-76.089029	0.003175	0.005012	2.830000	0.162921	0.250309	76.703377
11872.280844	1.005981	0.039293	1.006748	61.062959	11.461073	0.000017	-76.279428	-76.279428	-76.279428	0.003101	0.004885	2.830000	0.158542	0.246923	76.886549
12043.295474	1.007117	0.035236	1.007733	60.825527	11.618478	0.000017	-76.468228	-76.468228	-76.468228	0.003033	0.004753	2.830000	0.154275	0.243578	77.067349
12216.773490	1.006320	0.031124	1.006801	60.579596	11.778255	0.000016	-76.655578	-76.655578	-76.655578	0.002967	0.004616	2.830000	0.150117	0.240273	77.245804
12392.750375	1.003812	0.027947	1.004201	60.326034	11.940436	0.000015	-76.841354	-76.841354	-76.841354	0.002898	0.004475	2.830000	0.146066	0.237010	77.421937
12571.262124	1.000302	0.026462	1.000652	60.067816	12.105056	0.000015	-77.025190	-77.025190	-77.025190	0.002823	0.004333	2.830000	0.142120	0.233787	77.595772
12752.345251	0.996808	0.026955	0.997173	59.809320	12.272148	0.000014	-77.206586	-77.206586	-77.206586	0.002742	0.004196	2.830000	0.138276	0.230603	77.767333
12936.036796	0.994371	0.029135	0.994798	59.555119	12.441746	0.000014	-77.385060	-77.385060	-77.385060	0.002656	0.004068	2.830000	0.134531	0.227460	77.936644
13122.374331	0.993733	0.032189	0.994254	59.308567	12.613886	0.000013	-77.560295	-77.560295	-77.560295	0.002569	0.003951	2.830000	0.130884	0.224356	78.103727
13311.395971	0.995091	0.035010	0.995707	59.070622	12.788602	0.000012	-77.732258	-77.732258	-77.732258	0.002486	0.003844	2.830000	0.127332	0.221291	78.268608
13503.140379	0.998001	0.036539	0.998670	58.839394	12.965930	0.000012	-77.901219	-77.901219	-77.901219	0.002411	0.003747	2.830000	0.123873	0.218264	78.431311
13697.646775	1.001490	0.036123	1.002142	58.610658	13.145906	0.000011	-78.067682	-78.067682	-78.067682	0.002345	0.003654	2.830000	0.120504	0.215276	78.591861
13894.954944	1.004365	0.033758	1.004932	58.379220	13.328568	0.000011	-78.232228	-78.232228	-78.232228	0.002289	0.003561	2.830000	0.117223	0.212326	78.750284
14095.105244	1.005614	0.030130	1.006066	58.140700	13.513953	0.000010	-78.395327	-78.395327	-78.395327	0.002239	0.003465	2.830000	0.114029	0.209413	78.906604
14298.138616	1.004792	0.026400	1.005139	57.893111	13.702098	0.000010	-78.557177	-78.557177	-78.557177	0.002190	0.003365	2.830000	0.110919	0.206538	79.060846
14504.096588	1.002209	0.023797	1.002492	57.637704	13.893044	0.000010	-78.717632	-78.717632	-78.717632	0.002138	0.003262	2.830000	0.107891	0.203699	79.213034
14713.021288	0.998858	0.023157	0.999126	57.378685	14.086828	0.000009	-78.876260	-78.876260	-78.876260	0.002080	0.003159	2.830000	0.104942	0.200897	79.363190
14924.955451	0.996058	0.024562	0.996360	57.121779	14.283492	0.000009	-79.032512	-79.032512	-79.032512	0.002016	0.003062	2.830000	0.102072	0.198131	79.511338
15139.942425	0.994937	0.027278	0.995311	56.871993	14.483075	0.000008	-79.185950	-79.185950	-79.185950	0.001949	0.002972	2.830000	0.099278	0.195400	79.657499
15358.026185	0.995957	0.030007	0.996409	56.631444	14.685618	0.000008	-79.336433	-79.336433	-79.336433	0.001885	0.002891	2.830000	0.096558	0.192706	79.801698
15579.251340	0.998675	0.031418	0.999169	56.398267	14.891163	0.000008	-79.484199	-79.484199	-79.484199	0.001827	0.002817	2.830000	0.093911	0.190046	79.943958
15803.663140	1.001892	0.030726	1.002363	56.167259	15.099751	0.000007	-79.629780	-79.629780	-79.629780	0.001778	0.002747	2.830000	0.091334	0.187420	80.084302
16031.307485	1.004157	0.028080	1.004549	55.932109	15.311424	0.000007	-79.773784	-79.773784	-79.773784	0.001737	0.002675	2.830000	0.088826	0.184829	80.222754
16262.230941	1.004422	0.024539	1.004722	55.688261	15.526228	0.000007	-79.916628	-79.916628	-79.916628	0.001700	0.002601	2.830000	0.086385	0.182272	80.359338
16496.480741	1.002570	0.021617	1.002803	55.435117	15.744205	0.000007	-80.058354	-80.058354	-80.058354	0.001661	0.002523	2.830000	0.084010	0.179749	80.494077
16734.104799	0.999514	0.020565	0.999725	55.176534	15.965401	0.000006	-80.198607	-80.198607	-80.198607	0.001617	0.002444	2.830000	0.081698	0.177258	80.626991
16975.151720	0.996797	0.021723	0.997034	54.919177	16.189861	0.000006	-80.336818	-80.336818	-80.336818	0.001568	0.002369	2.830000	0.079448	0.174801	80.758104
17219.670809	0.995823	0.024301	0.996119	54.669235	16.417631	0.000006	-80.472496	-80.472496	-80.472496	0.001515	0.002300	2.830000	0.077259	0.172376	80.887436
17467.712080	0.997102	0.026738	0.997460	54.429045	16.648758	0.000006	-80.605503	-80.605503	-80.605503	0.001465	0.002238	2.830000	0.075128	0.169983	81.015009
17719.326270	0.999926	0.027516	1.000304	54.195580	16.883288	0.000005	-80.736147	-80.736147	-80.736147	0.001421	0.002181	2.830000	0.073056	0.167621	81.140845
17974.564843	1.002704	0.026015	1.003041	53.961928	17.121270	0.000005	-80.865033	-80.865033	-80.865033	0.001386	0.002125	2.830000	0.071039	0.165291	81.264966
18233.480009	1.003834	0.022918	1.004096	53.721129	17.362752	0.000005	-80.992740	-80.992740	-80.992740	0.001355	0.002068	2.830000	0.069076	0.162993	81.387395
18496.124725	1.002655	0.019872	1.002852	53.470255	17.607784	0.000005	-81.119497	-81.119497	-81.119497	0.001326	0.002007	2.830000	0.067167	0.160724	81.508152
18762.552716	0.999895	0.018533	1.000067	53.212352	17.856416	0.000004	-81.245050	-81.245050	-81.245050	0.001292	0.001945	2.830000	0.065310	0.158486	81.627259
19032.818477	0.997287	0.019530	0.997479	52.954894	18.108700	0.000004	-81.368823	-81.368823	-81.368823	0.001252	0.001885	2.830000	0.063502	0.156278	81.744736
19306.977289	0.996507	0.022007	0.996750	52.705235	18.364686	0.000004	-81.490288	-81.490288	-81.490288	0.001209	0.001831	2.830000	0.061744	0.154100	81.860603
19585.085230	0.998058	0.024118	0.998350	52.465693	18.624428	0.000004	-81.609326	-81.609326	-81.609326	0.001169	0.001782	2.830000	0.060034	0.151951	81.974880
19867.199185	1.000878	0.024226	1.001171	52.231684	18.887978	0.000004	-81.726327	-81.726327	-81.726327	0.001136	0.001736	2.830000	0.058370	0.149831	82.087588
20000.000000	1.002071	0.023449	1.002346	52.122161	19.012063	0.000004	-81.780319	-81.780319	-81.780319	0.001123	0.001716	2.830000	0.057611	0.148853	82.139561
