Freq (hertz)	Ra (norm)	Xa (norm)	Za (norm)	SPL (dB)	Ze (ohms)	Xd (mm) 	WPhase (deg)	UPhase (deg)	CPhase (deg)	Delay (msec)	Efficiency (%)	Ein (volts)	Pin (watts)	Iin (amps)	ZePhase (deg)

10.000000	0.002667	0.062303	0.062360	-18.248438	0.010000	0.400377	177.180108	177.180108	177.180108	0.783854	0.000011	2.830000	800.858270	282.994378	0.360142
10.144045	0.002745	0.063198	0.063257	-17.751679	0.010000	0.400382	177.139460	177.139460	177.139460	0.783878	0.000012	2.830000	800.857346	282.994214	0.365334
10.290166	0.002824	0.064105	0.064168	-17.254923	0.010000	0.400386	177.098225	177.098225	177.098225	0.783902	0.000012	2.830000	800.856395	282.994045	0.370600
10.438391	0.002906	0.065026	0.065091	-16.758172	0.010000	0.400391	177.056394	177.056394	177.056394	0.783928	0.000013	2.830000	800.855416	282.993871	0.375943
10.588751	0.002990	0.065960	0.066028	-16.261423	0.010000	0.400396	177.013960	177.013960	177.013960	0.783954	0.000014	2.830000	800.854408	282.993692	0.381363
10.741277	0.003077	0.066907	0.066978	-15.764681	0.010000	0.400401	176.970913	176.970913	176.970913	0.783981	0.000015	2.830000	800.853371	282.993508	0.386862
10.896000	0.003166	0.067868	0.067941	-15.267941	0.010000	0.400406	176.927244	176.927244	176.927244	0.784008	0.000015	2.830000	800.852304	282.993318	0.392439
11.052951	0.003258	0.068842	0.068919	-14.771208	0.010000	0.400412	176.882945	176.882945	176.882945	0.784037	0.000016	2.830000	800.851205	282.993123	0.398098
11.212164	0.003353	0.069830	0.069910	-14.274476	0.010000	0.400417	176.838006	176.838006	176.838006	0.784066	0.000017	2.830000	800.850075	282.992921	0.403838
11.373670	0.003450	0.070832	0.070916	-13.777753	0.010000	0.400423	176.792418	176.792418	176.792418	0.784096	0.000018	2.830000	800.848911	282.992714	0.409661
11.537502	0.003550	0.071849	0.071936	-13.281033	0.010000	0.400429	176.746171	176.746171	176.746171	0.784127	0.000019	2.830000	800.847713	282.992501	0.415568
11.703695	0.003653	0.072880	0.072971	-12.784316	0.010000	0.400435	176.699256	176.699256	176.699256	0.784159	0.000021	2.830000	800.846480	282.992282	0.421560
11.872281	0.003758	0.073926	0.074021	-12.287608	0.010000	0.400441	176.651664	176.651664	176.651664	0.784191	0.000022	2.830000	800.845211	282.992056	0.427639
12.043295	0.003867	0.074986	0.075086	-11.790905	0.010000	0.400447	176.603384	176.603384	176.603384	0.784225	0.000023	2.830000	800.843905	282.991823	0.433806
12.216773	0.003979	0.076062	0.076166	-11.294205	0.010000	0.400453	176.554406	176.554406	176.554406	0.784260	0.000024	2.830000	800.842560	282.991584	0.440062
12.392750	0.004095	0.077153	0.077261	-10.797510	0.010000	0.400460	176.504721	176.504721	176.504721	0.784295	0.000026	2.830000	800.841176	282.991337	0.446409
12.571262	0.004213	0.078259	0.078373	-10.300825	0.010000	0.400467	176.454318	176.454318	176.454318	0.784332	0.000027	2.830000	800.839751	282.991083	0.452847
12.752345	0.004336	0.079382	0.079500	-9.804143	0.010000	0.400474	176.403186	176.403186	176.403186	0.784370	0.000029	2.830000	800.838285	282.990822	0.459378
12.936037	0.004461	0.080520	0.080643	-9.307470	0.010000	0.400481	176.351315	176.351315	176.351315	0.784409	0.000031	2.830000	800.836776	282.990553	0.466004
13.122374	0.004590	0.081674	0.081803	-8.810800	0.010000	0.400489	176.298694	176.298694	176.298694	0.784449	0.000033	2.830000	800.835222	282.990276	0.472725
13.311396	0.004723	0.082845	0.082979	-8.314139	0.010000	0.400497	176.245313	176.245313	176.245313	0.784490	0.000034	2.830000	800.833622	282.989990	0.479544
13.503140	0.004860	0.084032	0.084172	-7.817483	0.010000	0.400505	176.191160	176.191160	176.191160	0.784532	0.000037	2.830000	800.831976	282.989697	0.486462
13.697647	0.005001	0.085236	0.085383	-7.320836	0.010000	0.400513	176.136224	176.136224	176.136224	0.784576	0.000039	2.830000	800.830281	282.989394	0.493479
13.894955	0.005146	0.086457	0.086610	-6.824194	0.010000	0.400521	176.080493	176.080493	176.080493	0.784621	0.000041	2.830000	800.828536	282.989083	0.500598
14.095105	0.005295	0.087696	0.087856	-6.327560	0.010000	0.400530	176.023956	176.023956	176.023956	0.784667	0.000043	2.830000	800.826741	282.988762	0.507820
14.298139	0.005448	0.088952	0.089119	-5.830935	0.010000	0.400539	175.966601	175.966601	175.966601	0.784714	0.000046	2.830000	800.824892	282.988432	0.515147
14.504097	0.005606	0.090226	0.090400	-5.334317	0.010000	0.400548	175.908417	175.908417	175.908417	0.784763	0.000049	2.830000	800.822988	282.988091	0.522579
14.713021	0.005769	0.091518	0.091699	-4.837707	0.010000	0.400557	175.849391	175.849391	175.849391	0.784813	0.000051	2.830000	800.821029	282.987741	0.530119
14.924955	0.005936	0.092828	0.093017	-4.341105	0.010000	0.400567	175.789511	175.789511	175.789511	0.784865	0.000054	2.830000	800.819012	282.987381	0.537769
15.139942	0.006108	0.094157	0.094354	-3.844511	0.010000	0.400577	175.728764	175.728764	175.728764	0.784918	0.000058	2.830000	800.816936	282.987009	0.545529
15.358026	0.006284	0.095504	0.095711	-3.347927	0.010000	0.400587	175.667138	175.667138	175.667138	0.784973	0.000061	2.830000	800.814798	282.986627	0.553401
15.579251	0.006466	0.096870	0.097086	-2.851351	0.010000	0.400598	175.604619	175.604619	175.604619	0.785029	0.000065	2.830000	800.812597	282.986233	0.561388
15.803663	0.006654	0.098256	0.098481	-2.354785	0.010001	0.400608	175.541196	175.541196	175.541196	0.785087	0.000069	2.830000	800.810332	282.985827	0.569490
16.031307	0.006846	0.099661	0.099896	-1.858229	0.010001	0.400620	175.476854	175.476854	175.476854	0.785146	0.000073	2.830000	800.807999	282.985409	0.577710
16.262231	0.007044	0.101086	0.101332	-1.361682	0.010001	0.400631	175.411580	175.411580	175.411580	0.785208	0.000077	2.830000	800.805597	282.984979	0.586048
16.496481	0.007248	0.102532	0.102788	-0.865146	0.010001	0.400643	175.345361	175.345361	175.345361	0.785271	0.000081	2.830000	800.803125	282.984536	0.594508
16.734105	0.007458	0.103997	0.104264	-0.368620	0.010001	0.400655	175.278183	175.278183	175.278183	0.785335	0.000086	2.830000	800.800579	282.984079	0.603090
16.975152	0.007674	0.105483	0.105762	0.127896	0.010001	0.400668	175.210031	175.210031	175.210031	0.785402	0.000091	2.830000	800.797958	282.983609	0.611797
17.219671	0.007896	0.106990	0.107281	0.624400	0.010001	0.400680	175.140891	175.140891	175.140891	0.785471	0.000097	2.830000	800.795260	282.983124	0.620630
17.467712	0.008125	0.108518	0.108822	1.120893	0.010001	0.400694	175.070750	175.070750	175.070750	0.785541	0.000102	2.830000	800.792481	282.982625	0.629591
17.719326	0.008360	0.110068	0.110385	1.617374	0.010001	0.400707	174.999591	174.999591	174.999591	0.785614	0.000108	2.830000	800.789620	282.982111	0.638682
17.974565	0.008602	0.111639	0.111970	2.113843	0.010001	0.400721	174.927401	174.927401	174.927401	0.785689	0.000115	2.830000	800.786675	282.981582	0.647905
18.233480	0.008851	0.113232	0.113578	2.610300	0.010001	0.400736	174.854164	174.854164	174.854164	0.785766	0.000121	2.830000	800.783642	282.981036	0.657262
18.496125	0.009107	0.114848	0.115209	3.106743	0.010001	0.400751	174.779864	174.779864	174.779864	0.785845	0.000129	2.830000	800.780518	282.980474	0.666754
18.762553	0.009370	0.116486	0.116863	3.603174	0.010001	0.400766	174.704487	174.704487	174.704487	0.785926	0.000136	2.830000	800.777302	282.979896	0.676385
19.032818	0.009641	0.118147	0.118540	4.099591	0.010001	0.400781	174.628015	174.628015	174.628015	0.786010	0.000144	2.830000	800.773991	282.979299	0.686155
19.306977	0.009920	0.119832	0.120242	4.595993	0.010001	0.400798	174.550434	174.550434	174.550434	0.786096	0.000153	2.830000	800.770581	282.978684	0.696067
19.585085	0.010207	0.121539	0.121967	5.092382	0.010001	0.400814	174.471727	174.471727	174.471727	0.786185	0.000162	2.830000	800.767069	282.978051	0.706123
19.867199	0.010502	0.123271	0.123718	5.588756	0.010001	0.400831	174.391876	174.391876	174.391876	0.786276	0.000171	2.830000	800.763453	282.977399	0.716326
20.153377	0.010806	0.125027	0.125493	6.085114	0.010001	0.400849	174.310866	174.310866	174.310866	0.786370	0.000181	2.830000	800.759728	282.976727	0.726677
20.443677	0.011118	0.126807	0.127293	6.581457	0.010001	0.400867	174.228680	174.228680	174.228680	0.786466	0.000192	2.830000	800.755893	282.976034	0.737178
20.738158	0.011440	0.128612	0.129119	7.077784	0.010001	0.400886	174.145298	174.145298	174.145298	0.786565	0.000203	2.830000	800.751943	282.975320	0.747832
21.036882	0.011771	0.130442	0.130972	7.574093	0.010001	0.400905	174.060705	174.060705	174.060705	0.786667	0.000215	2.830000	800.747876	282.974584	0.758641
21.339908	0.012111	0.132297	0.132850	8.070386	0.010001	0.400924	173.974882	173.974882	173.974882	0.786772	0.000228	2.830000	800.743686	282.973826	0.769607
21.647300	0.012461	0.134178	0.134755	8.566661	0.010001	0.400945	173.887812	173.887812	173.887812	0.786880	0.000241	2.830000	800.739371	282.973045	0.780733
21.959119	0.012821	0.136085	0.136687	9.062918	0.010001	0.400965	173.799474	173.799474	173.799474	0.786991	0.000255	2.830000	800.734927	282.972239	0.792021
22.275430	0.013191	0.138018	0.138647	9.559157	0.010001	0.400987	173.709851	173.709851	173.709851	0.787106	0.000270	2.830000	800.730349	282.971409	0.803473
22.596297	0.013572	0.139978	0.140634	10.055376	0.010001	0.401009	173.618924	173.618924	173.618924	0.787223	0.000286	2.830000	800.725634	282.970554	0.815092
22.921786	0.013965	0.141965	0.142650	10.551575	0.010001	0.401031	173.526674	173.526674	173.526674	0.787344	0.000303	2.830000	800.720778	282.969672	0.826881
23.251963	0.014368	0.143979	0.144694	11.047753	0.010001	0.401055	173.433079	173.433079	173.433079	0.787469	0.000321	2.830000	800.715775	282.968762	0.838841
23.586897	0.014783	0.146021	0.146768	11.543911	0.010001	0.401079	173.338122	173.338122	173.338122	0.787597	0.000340	2.830000	800.710622	282.967825	0.850976
23.926655	0.015210	0.148091	0.148870	12.040047	0.010001	0.401103	173.241781	173.241781	173.241781	0.787728	0.000360	2.830000	800.705314	282.966859	0.863288
24.271307	0.015649	0.150190	0.151003	12.536161	0.010001	0.401129	173.144035	173.144035	173.144035	0.787864	0.000381	2.830000	800.699845	282.965863	0.875780
24.620924	0.016101	0.152317	0.153165	13.032251	0.010001	0.401155	173.044864	173.044864	173.044864	0.788003	0.000403	2.830000	800.694211	282.964835	0.888454
24.975577	0.016565	0.154473	0.155358	13.528318	0.010001	0.401182	172.944247	172.944247	172.944247	0.788146	0.000427	2.830000	800.688407	282.963776	0.901313
25.335338	0.017043	0.156658	0.157583	14.024361	0.010001	0.401209	172.842161	172.842161	172.842161	0.788293	0.000452	2.830000	800.682428	282.962684	0.914360
25.700282	0.017535	0.158874	0.159838	14.520379	0.010001	0.401238	172.738586	172.738586	172.738586	0.788445	0.000479	2.830000	800.676267	282.961558	0.927597
26.070482	0.018041	0.161119	0.162126	15.016370	0.010001	0.401267	172.633497	172.633497	172.633497	0.788601	0.000507	2.830000	800.669919	282.960396	0.941028
26.446016	0.018561	0.163395	0.164446	15.512335	0.010001	0.401297	172.526874	172.526874	172.526874	0.788761	0.000537	2.830000	800.663379	282.959198	0.954656
26.826958	0.019097	0.165702	0.166798	16.008273	0.010001	0.401328	172.418693	172.418693	172.418693	0.788926	0.000569	2.830000	800.656640	282.957963	0.968483
27.213388	0.019647	0.168039	0.169184	16.504182	0.010002	0.401359	172.308930	172.308930	172.308930	0.789095	0.000602	2.830000	800.649695	282.956688	0.982513
27.605384	0.020214	0.170409	0.171604	17.000062	0.010002	0.401392	172.197562	172.197562	172.197562	0.789270	0.000638	2.830000	800.642539	282.955374	0.996748
28.003026	0.020797	0.172810	0.174057	17.495913	0.010002	0.401425	172.084564	172.084564	172.084564	0.789449	0.000675	2.830000	800.635165	282.954017	1.011192
28.406397	0.021396	0.175244	0.176545	17.991732	0.010002	0.401460	171.969912	171.969912	171.969912	0.789633	0.000715	2.830000	800.627565	282.952618	1.025847
28.815578	0.022012	0.177710	0.179068	18.487520	0.010002	0.401495	171.853581	171.853581	171.853581	0.789823	0.000757	2.830000	800.619733	282.951175	1.040718
29.230652	0.022646	0.180209	0.181626	18.983274	0.010002	0.401532	171.735546	171.735546	171.735546	0.790018	0.000801	2.830000	800.611660	282.949685	1.055806
29.651706	0.023299	0.182742	0.184221	19.478995	0.010002	0.401569	171.615780	171.615780	171.615780	0.790219	0.000849	2.830000	800.603340	282.948148	1.071116
30.078825	0.023970	0.185308	0.186852	19.974682	0.010002	0.401608	171.494258	171.494258	171.494258	0.790425	0.000899	2.830000	800.594764	282.946562	1.086652
30.512097	0.024660	0.187908	0.189519	20.470332	0.010002	0.401648	171.370953	171.370953	171.370953	0.790637	0.000951	2.830000	800.585924	282.944925	1.102415
30.951609	0.025369	0.190543	0.192225	20.965945	0.010002	0.401689	171.245838	171.245838	171.245838	0.790855	0.001007	2.830000	800.576812	282.943236	1.118410
31.397452	0.026099	0.193213	0.194968	21.461521	0.010002	0.401730	171.118884	171.118884	171.118884	0.791079	0.001067	2.830000	800.567418	282.941492	1.134641
31.849718	0.026850	0.195918	0.197749	21.957057	0.010002	0.401774	170.990066	170.990066	170.990066	0.791310	0.001129	2.830000	800.557734	282.939692	1.151111
32.308498	0.027622	0.198658	0.200569	22.452553	0.010002	0.401818	170.859353	170.859353	170.859353	0.791547	0.001196	2.830000	800.547750	282.937833	1.167823
32.773887	0.028417	0.201434	0.203429	22.948007	0.010002	0.401863	170.726717	170.726717	170.726717	0.791791	0.001266	2.830000	800.537456	282.935915	1.184782
33.245979	0.029233	0.204247	0.206328	23.443418	0.010002	0.401910	170.592128	170.592128	170.592128	0.792041	0.001341	2.830000	800.526842	282.933934	1.201991
33.724872	0.030074	0.207096	0.209268	23.938785	0.010002	0.401959	170.455557	170.455557	170.455557	0.792299	0.001420	2.830000	800.515897	282.931888	1.219454
34.210663	0.030938	0.209982	0.212249	24.434107	0.010002	0.402008	170.316973	170.316973	170.316973	0.792564	0.001503	2.830000	800.504611	282.929775	1.237175
34.703452	0.031826	0.212906	0.215271	24.929382	0.010003	0.402059	170.176345	170.176345	170.176345	0.792836	0.001592	2.830000	800.492972	282.927593	1.255157
35.203338	0.032740	0.215867	0.218336	25.424608	0.010003	0.402111	170.033641	170.033641	170.033641	0.793116	0.001685	2.830000	800.480969	282.925340	1.273406
35.710426	0.033680	0.218867	0.221443	25.919784	0.010003	0.402165	169.888830	169.888830	169.888830	0.793404	0.001785	2.830000	800.468589	282.923011	1.291925
36.224818	0.034646	0.221904	0.224593	26.414909	0.010003	0.402220	169.741880	169.741880	169.741880	0.793700	0.001890	2.830000	800.455820	282.920606	1.310718
36.746619	0.035640	0.224981	0.227786	26.909981	0.010003	0.402277	169.592756	169.592756	169.592756	0.794005	0.002001	2.830000	800.442649	282.918121	1.329789
37.275937	0.036662	0.228097	0.231024	27.404998	0.010003	0.402336	169.441425	169.441425	169.441425	0.794317	0.002119	2.830000	800.429062	282.915554	1.349144
37.812880	0.037713	0.231252	0.234307	27.899959	0.010003	0.402396	169.287853	169.287853	169.287853	0.794639	0.002243	2.830000	800.415045	282.912900	1.368785
38.357556	0.038793	0.234447	0.237635	28.394862	0.010003	0.402458	169.132005	169.132005	169.132005	0.794969	0.002375	2.830000	800.400585	282.910158	1.388719
38.910079	0.039905	0.237682	0.241009	28.889706	0.010003	0.402521	168.973845	168.973845	168.973845	0.795309	0.002515	2.830000	800.385664	282.907323	1.408949
39.470560	0.041047	0.240957	0.244429	29.384487	0.010003	0.402586	168.813338	168.813338	168.813338	0.795658	0.002663	2.830000	800.370269	282.904393	1.429480
40.039115	0.042222	0.244274	0.247896	29.879205	0.010003	0.402653	168.650446	168.650446	168.650446	0.796017	0.002820	2.830000	800.354382	282.901364	1.450316
40.615860	0.043430	0.247631	0.251411	30.373857	0.010004	0.402722	168.485133	168.485133	168.485133	0.796386	0.002985	2.830000	800.337988	282.898232	1.471464
41.200912	0.044672	0.251030	0.254974	30.868442	0.010004	0.402793	168.317359	168.317359	168.317359	0.796765	0.003161	2.830000	800.321068	282.894993	1.492926
41.794392	0.045949	0.254470	0.258586	31.362956	0.010004	0.402865	168.147087	168.147087	168.147087	0.797154	0.003347	2.830000	800.303604	282.891643	1.514709
42.396421	0.047262	0.257953	0.262247	31.857399	0.010004	0.402940	167.974276	167.974276	167.974276	0.797554	0.003544	2.830000	800.285577	282.888179	1.536818
43.007121	0.048612	0.261477	0.265958	32.351768	0.010004	0.403017	167.798887	167.798887	167.798887	0.797966	0.003752	2.830000	800.266968	282.884595	1.559257
43.626619	0.050000	0.265044	0.269719	32.846060	0.010004	0.403096	167.620878	167.620878	167.620878	0.798388	0.003973	2.830000	800.247757	282.880887	1.582033
44.255040	0.051427	0.268654	0.273532	33.340273	0.010004	0.403177	167.440209	167.440209	167.440209	0.798822	0.004207	2.830000	800.227922	282.877051	1.605150
44.892513	0.052894	0.272307	0.277397	33.834405	0.010004	0.403260	167.256836	167.256836	167.256836	0.799268	0.004454	2.830000	800.207442	282.873081	1.628613
45.539168	0.054402	0.276003	0.281314	34.328453	0.010005	0.403345	167.070716	167.070716	167.070716	0.799727	0.004716	2.830000	800.186293	282.868972	1.652429
46.195138	0.055952	0.279743	0.285284	34.822414	0.010005	0.403433	166.881805	166.881805	166.881805	0.800197	0.004993	2.830000	800.164452	282.864720	1.676603
46.860558	0.057545	0.283526	0.289307	35.316285	0.010005	0.403523	166.690060	166.690060	166.690060	0.800681	0.005287	2.830000	800.141895	282.860317	1.701141
47.535562	0.059183	0.287354	0.293385	35.810064	0.010005	0.403616	166.495433	166.495433	166.495433	0.801178	0.005598	2.830000	800.118595	282.855759	1.726048
48.220290	0.060866	0.291225	0.297517	36.303748	0.010005	0.403711	166.297878	166.297878	166.297878	0.801688	0.005927	2.830000	800.094527	282.851039	1.751331
48.914880	0.062596	0.295140	0.301705	36.797334	0.010005	0.403809	166.097348	166.097348	166.097348	0.802212	0.006276	2.830000	800.069661	282.846151	1.776996
49.619476	0.064375	0.299100	0.305949	37.290818	0.010006	0.403909	165.893795	165.893795	165.893795	0.802751	0.006645	2.830000	800.043971	282.841088	1.803049
50.334221	0.066203	0.303105	0.310250	37.784198	0.010006	0.404012	165.687170	165.687170	165.687170	0.803303	0.007035	2.830000	800.017425	282.835843	1.829495
51.059262	0.068081	0.307153	0.314608	38.277469	0.010006	0.404118	165.477422	165.477422	165.477422	0.803871	0.007449	2.830000	799.989992	282.830409	1.856343
51.794747	0.070012	0.311247	0.319024	38.770629	0.010006	0.404226	165.264501	165.264501	165.264501	0.804454	0.007887	2.830000	799.961641	282.824778	1.883598
52.540826	0.071996	0.315386	0.323499	39.263674	0.010006	0.404338	165.048353	165.048353	165.048353	0.805052	0.008351	2.830000	799.932337	282.818942	1.911267
53.297652	0.074035	0.319569	0.328033	39.756599	0.010007	0.404452	164.828928	164.828928	164.828928	0.805667	0.008841	2.830000	799.902045	282.812893	1.939356
54.065379	0.076130	0.323797	0.332626	40.249402	0.010007	0.404569	164.606169	164.606169	164.606169	0.806298	0.009361	2.830000	799.870728	282.806622	1.967873
54.844166	0.078282	0.328070	0.337280	40.742078	0.010007	0.404690	164.380022	164.380022	164.380022	0.806945	0.009911	2.830000	799.838349	282.800120	1.996825
55.634170	0.080494	0.332387	0.341995	41.234623	0.010007	0.404813	164.150431	164.150431	164.150431	0.807610	0.010494	2.830000	799.804868	282.793377	2.026218
56.435554	0.082767	0.336750	0.346772	41.727033	0.010008	0.404940	163.917339	163.917339	163.917339	0.808292	0.011110	2.830000	799.770243	282.786384	2.056061
57.248482	0.085102	0.341157	0.351611	42.219303	0.010008	0.405071	163.680687	163.680687	163.680687	0.808992	0.011763	2.830000	799.734431	282.779129	2.086361
58.073119	0.087500	0.345608	0.356513	42.711429	0.010008	0.405204	163.440416	163.440416	163.440416	0.809710	0.012454	2.830000	799.697388	282.771603	2.117124
58.909635	0.089965	0.350104	0.361478	43.203405	0.010008	0.405341	163.196464	163.196464	163.196464	0.810447	0.013185	2.830000	799.659066	282.763793	2.148360
59.758201	0.092496	0.354644	0.366508	43.695228	0.010009	0.405482	162.948771	162.948771	162.948771	0.811203	0.013960	2.830000	799.619418	282.755688	2.180076
60.618990	0.095096	0.359228	0.371602	44.186891	0.010009	0.405626	162.697272	162.697272	162.697272	0.811979	0.014780	2.830000	799.578391	282.747275	2.212279
61.492178	0.097767	0.363856	0.376762	44.678389	0.010009	0.405774	162.441903	162.441903	162.441903	0.812775	0.015648	2.830000	799.535934	282.738541	2.244979
62.377944	0.100510	0.368527	0.381987	45.169718	0.010010	0.405925	162.182599	162.182599	162.182599	0.813591	0.016566	2.830000	799.491991	282.729472	2.278183
63.276469	0.103327	0.373241	0.387279	45.660870	0.010010	0.406080	161.919293	161.919293	161.919293	0.814428	0.017539	2.830000	799.446504	282.720054	2.311901
64.187937	0.106221	0.377997	0.392638	46.151841	0.010010	0.406240	161.651915	161.651915	161.651915	0.815286	0.018568	2.830000	799.399413	282.710272	2.346139
65.112534	0.109192	0.382796	0.398065	46.642624	0.010011	0.406403	161.380397	161.380397	161.380397	0.816166	0.019658	2.830000	799.350656	282.700109	2.380909
66.050449	0.112243	0.387637	0.403560	47.133213	0.010011	0.406570	161.104667	161.104667	161.104667	0.817068	0.020812	2.830000	799.300167	282.689550	2.416218
67.001875	0.115376	0.392518	0.409124	47.623600	0.010011	0.406742	160.824653	160.824653	160.824653	0.817992	0.022033	2.830000	799.247878	282.678577	2.452075
67.967006	0.118592	0.397441	0.414757	48.113780	0.010012	0.406918	160.540279	160.540279	160.540279	0.818939	0.023325	2.830000	799.193718	282.667173	2.488490
68.946038	0.121894	0.402403	0.420460	48.603745	0.010012	0.407098	160.251472	160.251472	160.251472	0.819910	0.024693	2.830000	799.137613	282.655316	2.525473
69.939174	0.125284	0.407405	0.426233	49.093488	0.010013	0.407282	159.958153	159.958153	159.958153	0.820905	0.026141	2.830000	799.079484	282.642989	2.563033
70.946615	0.128764	0.412445	0.432077	49.583000	0.010013	0.407471	159.660244	159.660244	159.660244	0.821924	0.027674	2.830000	799.019252	282.630170	2.601179
71.968567	0.132336	0.417522	0.437993	50.072275	0.010014	0.407664	159.357664	159.357664	159.357664	0.822967	0.029296	2.830000	798.956831	282.616837	2.639923
73.005241	0.136002	0.422637	0.443980	50.561303	0.010014	0.407862	159.050332	159.050332	159.050332	0.824036	0.031013	2.830000	798.892134	282.602968	2.679274
74.056847	0.139764	0.427787	0.450040	51.050076	0.010015	0.408065	158.738163	158.738163	158.738163	0.825130	0.032830	2.830000	798.825068	282.588537	2.719242
75.123601	0.143625	0.432972	0.456172	51.538585	0.010015	0.408272	158.421072	158.421072	158.421072	0.826250	0.034753	2.830000	798.755537	282.573520	2.759839
76.205721	0.147586	0.438191	0.462378	52.026821	0.010016	0.408484	158.098973	158.098973	158.098973	0.827396	0.036788	2.830000	798.683441	282.557891	2.801074
77.303429	0.151651	0.443443	0.468657	52.514774	0.010016	0.408701	157.771775	157.771775	157.771775	0.828569	0.038942	2.830000	798.608675	282.541622	2.842959
78.416948	0.155821	0.448725	0.475010	53.002434	0.010017	0.408923	157.439389	157.439389	157.439389	0.829769	0.041221	2.830000	798.531130	282.524683	2.885504
79.546508	0.160099	0.454038	0.481437	53.489791	0.010017	0.409150	157.101722	157.101722	157.101722	0.830996	0.043633	2.830000	798.450691	282.507044	2.928722
80.692338	0.164487	0.459379	0.487940	53.976834	0.010018	0.409382	156.758679	156.758679	156.758679	0.832250	0.046186	2.830000	798.367238	282.488674	2.972623
81.854673	0.168988	0.464747	0.494517	54.463551	0.010019	0.409619	156.410163	156.410163	156.410163	0.833533	0.048886	2.830000	798.280648	282.469538	3.017220
83.033751	0.173603	0.470140	0.501169	54.949931	0.010019	0.409862	156.056077	156.056077	156.056077	0.834844	0.051744	2.830000	798.190790	282.449602	3.062523
84.229813	0.178336	0.475558	0.507896	55.435961	0.010020	0.410109	155.696320	155.696320	155.696320	0.836184	0.054767	2.830000	798.097528	282.428829	3.108546
85.443104	0.183189	0.480997	0.514700	55.921630	0.010021	0.410362	155.330789	155.330789	155.330789	0.837552	0.057966	2.830000	798.000720	282.407179	3.155300
86.673872	0.188164	0.486456	0.521579	56.406923	0.010022	0.410620	154.959380	154.959380	154.959380	0.838949	0.061351	2.830000	797.900217	282.384614	3.202797
87.922369	0.193264	0.491932	0.528534	56.891827	0.010023	0.410883	154.581987	154.581987	154.581987	0.840375	0.064931	2.830000	797.795866	282.361089	3.251051
89.188849	0.198491	0.497425	0.535566	57.376328	0.010023	0.411152	154.198501	154.198501	154.198501	0.841831	0.068719	2.830000	797.687503	282.336562	3.300073
90.473572	0.203849	0.502931	0.542673	57.860410	0.010024	0.411426	153.808811	153.808811	153.808811	0.843316	0.072725	2.830000	797.574960	282.310985	3.349877
91.776802	0.209339	0.508449	0.549857	58.344059	0.010025	0.411706	153.412804	153.412804	153.412804	0.844830	0.076964	2.830000	797.458062	282.284309	3.400475
93.098803	0.214964	0.513975	0.557117	58.827258	0.010026	0.411991	153.010365	153.010365	153.010365	0.846373	0.081446	2.830000	797.336623	282.256483	3.451881
94.439848	0.220726	0.519507	0.564454	59.309990	0.010027	0.412281	152.601377	152.601377	152.601377	0.847946	0.086187	2.830000	797.210453	282.227454	3.504108
95.800210	0.226629	0.525043	0.571866	59.792238	0.010028	0.412577	152.185720	152.185720	152.185720	0.849548	0.091202	2.830000	797.079349	282.197165	3.557170
97.180167	0.232674	0.530579	0.579354	60.273984	0.010030	0.412878	151.763272	151.763272	151.763272	0.851180	0.096504	2.830000	796.943105	282.165558	3.611080
98.580001	0.238865	0.536112	0.586918	60.755209	0.010031	0.413184	151.333911	151.333911	151.333911	0.852839	0.102111	2.830000	796.801500	282.132571	3.665851
100.000000	0.245204	0.541640	0.594557	61.235893	0.010032	0.413496	150.897508	150.897508	150.897508	0.854528	0.108040	2.830000	796.654308	282.098139	3.721497
101.440453	0.251693	0.547158	0.602272	61.716015	0.010033	0.413813	150.453937	150.453937	150.453937	0.856244	0.114309	2.830000	796.501291	282.062196	3.778032
102.901655	0.258335	0.552664	0.610061	62.195554	0.010035	0.414135	150.003066	150.003066	150.003066	0.857988	0.120936	2.830000	796.342202	282.024669	3.835470
104.383905	0.265132	0.558154	0.617925	62.674488	0.010036	0.414461	149.544762	149.544762	149.544762	0.859759	0.127941	2.830000	796.176783	281.985487	3.893825
105.887506	0.272087	0.563623	0.625862	63.152793	0.010037	0.414793	149.078891	149.078891	149.078891	0.861556	0.135346	2.830000	796.004766	281.944570	3.953110
107.412766	0.279203	0.569069	0.633872	63.630445	0.010039	0.415130	148.605316	148.605316	148.605316	0.863379	0.143172	2.830000	795.825871	281.901840	4.013340
108.959997	0.286481	0.574487	0.641955	64.107419	0.010041	0.415471	148.123897	148.123897	148.123897	0.865226	0.151443	2.830000	795.639806	281.857210	4.074527
110.529514	0.293924	0.579872	0.650110	64.583689	0.010042	0.415817	147.634492	147.634492	147.634492	0.867097	0.160182	2.830000	795.446268	281.810593	4.136687
112.121640	0.301534	0.585220	0.658335	65.059227	0.010044	0.416167	147.136960	147.136960	147.136960	0.868990	0.169416	2.830000	795.244942	281.761897	4.199832
113.736699	0.309313	0.590527	0.666630	65.534004	0.010046	0.416522	146.631153	146.631153	146.631153	0.870904	0.179171	2.830000	795.035500	281.711026	4.263976
115.375023	0.317264	0.595787	0.674995	66.007991	0.010048	0.416880	146.116926	146.116926	146.116926	0.872838	0.189476	2.830000	794.817602	281.657880	4.329133
117.036946	0.325388	0.600995	0.683427	66.481157	0.010050	0.417241	145.594129	145.594129	145.594129	0.874790	0.200359	2.830000	794.590893	281.602354	4.395315
118.722808	0.333688	0.606147	0.691926	66.953469	0.010052	0.417606	145.062613	145.062613	145.062613	0.876758	0.211853	2.830000	794.355007	281.544338	4.462535
120.432955	0.342165	0.611236	0.700490	67.424894	0.010054	0.417975	144.522223	144.522223	144.522223	0.878740	0.223988	2.830000	794.109561	281.483721	4.530807
122.167735	0.350821	0.616258	0.709118	67.895397	0.010056	0.418345	143.972808	143.972808	143.972808	0.880734	0.236800	2.830000	793.854161	281.420383	4.600141
123.927504	0.359658	0.621205	0.717809	68.364940	0.010058	0.418718	143.414213	143.414213	143.414213	0.882737	0.250323	2.830000	793.588398	281.354202	4.670550
125.712621	0.368677	0.626073	0.726560	68.833486	0.010061	0.419093	142.846282	142.846282	142.846282	0.884747	0.264594	2.830000	793.311849	281.285050	4.742046
127.523453	0.377879	0.630855	0.735371	69.300994	0.010064	0.419470	142.268858	142.268858	142.268858	0.886761	0.279653	2.830000	793.024075	281.212795	4.814638
129.360368	0.387266	0.635544	0.744238	69.767425	0.010066	0.419847	141.681784	141.681784	141.681784	0.888776	0.295539	2.830000	792.724624	281.137299	4.888337
131.223743	0.396838	0.640133	0.753161	70.232734	0.010069	0.420225	141.084902	141.084902	141.084902	0.890789	0.312296	2.830000	792.413029	281.058421	4.963153
133.113960	0.406597	0.644617	0.762137	70.696876	0.010072	0.420602	140.478056	140.478056	140.478056	0.892795	0.329966	2.830000	792.088809	280.976011	5.039094
135.031404	0.416543	0.648987	0.771163	71.159806	0.010075	0.420979	139.861086	139.861086	139.861086	0.894791	0.348595	2.830000	791.751469	280.889919	5.116168
136.976468	0.426676	0.653236	0.780237	71.621473	0.010078	0.421355	139.233836	139.233836	139.233836	0.896772	0.368230	2.830000	791.400499	280.799986	5.194381
138.949549	0.436997	0.657357	0.789357	72.081828	0.010082	0.421728	138.596151	138.596151	138.596151	0.898734	0.388922	2.830000	791.035377	280.706050	5.273741
140.951052	0.447506	0.661342	0.798520	72.540818	0.010085	0.422098	137.947874	137.947874	137.947874	0.900673	0.410721	2.830000	790.655564	280.607943	5.354251
142.981386	0.458202	0.665182	0.807723	72.998387	0.010089	0.422465	137.288853	137.288853	137.288853	0.902581	0.433679	2.830000	790.260513	280.505493	5.435915
145.040966	0.469084	0.668870	0.816962	73.454480	0.010093	0.422827	136.618937	136.618937	136.618937	0.904455	0.457853	2.830000	789.849663	280.398523	5.518735
147.130213	0.480152	0.672398	0.826235	73.909037	0.010097	0.423184	135.937977	135.937977	135.937977	0.906287	0.483297	2.830000	789.422440	280.286851	5.602712
149.249555	0.491405	0.675756	0.835539	74.361995	0.010101	0.423535	135.245828	135.245828	135.245828	0.908071	0.510070	2.830000	788.978264	280.170292	5.687846
151.399424	0.502841	0.678935	0.844868	74.813292	0.010105	0.423878	134.542349	134.542349	134.542349	0.909801	0.538232	2.830000	788.516541	280.048655	5.774132
153.580262	0.514458	0.681928	0.854220	75.262861	0.010110	0.424212	133.827403	133.827403	133.827403	0.911468	0.567845	2.830000	788.036674	279.921747	5.861568
155.792513	0.526253	0.684724	0.863591	75.710633	0.010115	0.424537	133.100857	133.100857	133.100857	0.913066	0.598972	2.830000	787.538057	279.789372	5.950146
158.036631	0.538225	0.687315	0.872976	76.156536	0.010120	0.424850	132.362586	132.362586	132.362586	0.914586	0.631676	2.830000	787.020080	279.651330	6.039858
160.313075	0.550370	0.689690	0.882371	76.600497	0.010125	0.425152	131.612470	131.612470	131.612470	0.916019	0.666024	2.830000	786.482132	279.507419	6.130694
162.622309	0.562684	0.691840	0.891771	77.042439	0.010130	0.425440	130.850396	130.850396	130.850396	0.917356	0.702083	2.830000	785.923599	279.357435	6.222641
164.964807	0.575164	0.693755	0.901171	77.482282	0.010136	0.425713	130.076263	130.076263	130.076263	0.918587	0.739920	2.830000	785.343872	279.201173	6.315683
167.341048	0.587805	0.695425	0.910566	77.919944	0.010142	0.425969	129.289973	129.289973	129.289973	0.919703	0.779605	2.830000	784.742344	279.038430	6.409802
169.751517	0.600602	0.696841	0.919951	78.355341	0.010148	0.426208	128.491444	128.491444	128.491444	0.920692	0.821206	2.830000	784.118419	278.869000	6.504978
172.196708	0.613550	0.697992	0.929320	78.788383	0.010155	0.426426	127.680602	127.680602	127.680602	0.921543	0.864793	2.830000	783.471508	278.692681	6.601186
174.677121	0.626643	0.698867	0.938667	79.218982	0.010161	0.426624	126.857385	126.857385	126.857385	0.922245	0.910435	2.830000	782.801041	278.509272	6.698401
177.193263	0.639873	0.699457	0.947986	79.647043	0.010168	0.426799	126.021747	126.021747	126.021747	0.922786	0.958202	2.830000	782.106461	278.318577	6.796592
179.745648	0.653235	0.699751	0.957271	80.072470	0.010175	0.426948	125.173653	125.173653	125.173653	0.923153	1.008161	2.830000	781.387236	278.120404	6.895727
182.334800	0.666719	0.699739	0.966514	80.495164	0.010183	0.427072	124.313088	124.313088	124.313088	0.923334	1.060382	2.830000	780.642861	277.914567	6.995770
184.961247	0.680318	0.699411	0.975709	80.915023	0.010191	0.427166	123.440049	123.440049	123.440049	0.923314	1.114928	2.830000	779.872859	277.700888	7.096681
187.625527	0.694023	0.698757	0.984849	81.331942	0.010199	0.427231	122.554556	122.554556	122.554556	0.923080	1.171866	2.830000	779.076789	277.479198	7.198419
190.328185	0.707823	0.697765	0.993927	81.745815	0.010207	0.427262	121.656646	121.656646	121.656646	0.922618	1.231255	2.830000	778.254252	277.249339	7.300937
193.069773	0.721709	0.696428	1.002933	82.156530	0.010216	0.427260	120.746376	120.746376	120.746376	0.921913	1.293155	2.830000	777.404892	277.011163	7.404185
195.850852	0.735668	0.694734	1.011861	82.563977	0.010225	0.427221	119.823828	119.823828	119.823828	0.920951	1.357620	2.830000	776.528405	276.764539	7.508112
198.671992	0.749690	0.692674	1.020701	82.968038	0.010235	0.427143	118.889106	118.889106	118.889106	0.919716	1.424702	2.830000	775.624539	276.509349	7.612662
201.533769	0.763760	0.690239	1.029446	83.368599	0.010245	0.427025	117.942338	117.942338	117.942338	0.918194	1.494447	2.830000	774.693108	276.245494	7.717776
204.436768	0.777867	0.687419	1.038086	83.765538	0.010255	0.426865	116.983681	116.983681	116.983681	0.916369	1.566895	2.830000	773.733987	275.972895	7.823392
207.381584	0.791996	0.684207	1.046612	84.158734	0.010265	0.426660	116.013317	116.013317	116.013317	0.914226	1.642082	2.830000	772.747124	275.691491	7.929446
210.368818	0.806131	0.680593	1.055014	84.548065	0.010276	0.426408	115.031459	115.031459	115.031459	0.911749	1.720035	2.830000	771.732542	275.401247	8.035871
213.399082	0.820257	0.676571	1.063282	84.933404	0.010287	0.426108	114.038349	114.038349	114.038349	0.908924	1.800776	2.830000	770.690345	275.102152	8.142599
216.472995	0.834356	0.672132	1.071407	85.314626	0.010299	0.425757	113.034260	113.034260	113.034260	0.905735	1.884317	2.830000	769.620722	274.794219	8.249557
219.591187	0.848413	0.667271	1.079377	85.691603	0.010310	0.425353	112.019499	112.019499	112.019499	0.902168	1.970661	2.830000	768.523948	274.477493	8.356674
222.754295	0.862408	0.661980	1.087182	86.064207	0.010323	0.424896	110.994405	110.994405	110.994405	0.898208	2.059805	2.830000	767.400392	274.152046	8.463877
225.962966	0.876323	0.656255	1.094812	86.432309	0.010335	0.424383	109.959354	109.959354	109.959354	0.893841	2.151732	2.830000	766.250516	273.817980	8.571091
229.217857	0.890137	0.650092	1.102254	86.795778	0.010348	0.423813	108.914755	108.914755	108.914755	0.889055	2.246416	2.830000	765.074879	273.475431	8.678243
232.519632	0.903830	0.643486	1.109497	87.154486	0.010362	0.423184	107.861054	107.861054	107.861054	0.883837	2.343821	2.830000	763.874135	273.124567	8.785260
235.868968	0.917381	0.636434	1.116529	87.508304	0.010375	0.422494	106.798736	106.798736	106.798736	0.878174	2.443899	2.830000	762.649036	272.765588	8.892070
239.266550	0.930768	0.628936	1.123338	87.857103	0.010389	0.421744	105.728319	105.728319	105.728319	0.872056	2.546590	2.830000	761.400431	272.398730	8.998603
242.713072	0.943967	0.620990	1.129913	88.200756	0.010403	0.420932	104.650363	104.650363	104.650363	0.865472	2.651822	2.830000	760.129263	272.024262	9.104792
246.209240	0.956956	0.612597	1.136240	88.539137	0.010418	0.420057	103.565464	103.565464	103.565464	0.858415	2.759510	2.830000	758.836562	271.642484	9.210574
249.755769	0.969711	0.603759	1.142306	88.872122	0.010433	0.419119	102.474256	102.474256	102.474256	0.850875	2.869558	2.830000	757.523448	271.253733	9.315889
253.353383	0.982206	0.594478	1.148100	89.199590	0.010448	0.418118	101.377410	101.377410	101.377410	0.842847	2.981857	2.830000	756.191120	270.858373	9.420685
257.002820	0.994418	0.584760	1.153607	89.521421	0.010464	0.417053	100.275638	100.275638	100.275638	0.834325	3.096286	2.830000	754.840848	270.456801	9.524912
260.704825	1.006319	0.574609	1.158816	89.837501	0.010480	0.415925	99.169684	99.169684	99.169684	0.825305	3.212715	2.830000	753.473969	270.049440	9.628531
264.460155	1.017886	0.564035	1.163713	90.147717	0.010496	0.414734	98.060333	98.060333	98.060333	0.815784	3.330998	2.830000	752.091872	269.636738	9.731507
268.269580	1.029091	0.553046	1.168284	90.451960	0.010512	0.413481	96.948404	96.948404	96.948404	0.805762	3.450984	2.830000	750.695993	269.219166	9.833816
272.133877	1.039908	0.541652	1.172517	90.750128	0.010528	0.412168	95.834751	95.834751	95.834751	0.795238	3.572509	2.830000	749.287794	268.797214	9.935442
276.053838	1.050311	0.529867	1.176398	91.042122	0.010545	0.410795	94.720261	94.720261	94.720261	0.784213	3.695401	2.830000	747.868761	268.371387	10.036380
280.030263	1.060274	0.517706	1.179915	91.327848	0.010562	0.409365	93.605856	93.605856	93.605856	0.772692	3.819481	2.830000	746.440377	267.942200	10.136634
284.063968	1.069770	0.505184	1.183055	91.607219	0.010579	0.407879	92.492488	92.492488	92.492488	0.760678	3.944567	2.830000	745.004118	267.510174	10.236221
288.155776	1.078775	0.492320	1.185805	91.880154	0.010596	0.406339	91.381140	91.381140	91.381140	0.748178	4.070467	2.830000	743.561429	267.075834	10.335170
292.306525	1.087261	0.479135	1.188153	92.146580	0.010614	0.404749	90.272823	90.272823	90.272823	0.735197	4.196990	2.830000	742.113712	266.639696	10.433519
296.517063	1.095206	0.465652	1.190087	92.406428	0.010631	0.403111	89.168577	89.168577	89.168577	0.721744	4.323943	2.830000	740.662307	266.202271	10.531323
300.788252	1.102584	0.451894	1.191596	92.659641	0.010649	0.401428	88.069468	88.069468	88.069468	0.707828	4.451133	2.830000	739.208473	265.764053	10.628646
305.120965	1.109373	0.437890	1.192668	92.906167	0.010666	0.399703	86.976588	86.976588	86.976588	0.693460	4.578371	2.830000	737.753375	265.325515	10.725566
309.516090	1.115551	0.423668	1.193293	93.145965	0.010684	0.397941	85.891051	85.891051	85.891051	0.678651	4.705471	2.830000	736.298063	264.887103	10.822175
313.974523	1.121096	0.409259	1.193461	93.379003	0.010701	0.396145	84.813994	84.813994	84.813994	0.663411	4.832254	2.830000	734.843457	264.449230	10.918577
318.497179	1.125991	0.394696	1.193164	93.605258	0.010719	0.394319	83.746578	83.746578	83.746578	0.647755	4.958551	2.830000	733.390326	264.012271	11.014887
323.084981	1.130218	0.380015	1.192394	93.824719	0.010737	0.392468	82.689981	82.689981	82.689981	0.631694	5.084202	2.830000	731.939280	263.576556	11.111233
327.738869	1.133761	0.365252	1.191144	94.037386	0.010755	0.390596	81.645403	81.645403	81.645403	0.615242	5.209061	2.830000	730.490746	263.142364	11.207755
332.459793	1.136607	0.350449	1.189407	94.243273	0.010772	0.388708	80.614061	80.614061	80.614061	0.598413	5.332997	2.830000	729.044959	262.709918	11.304604
337.248720	1.138744	0.335644	1.187180	94.442404	0.010790	0.386808	79.597193	79.597193	79.597193	0.581221	5.455897	2.830000	727.601947	262.279381	11.401940
342.106630	1.140166	0.320883	1.184459	94.634820	0.010808	0.384901	78.596051	78.596051	78.596051	0.563680	5.577665	2.830000	726.161515	261.850847	11.499933
347.034515	1.140865	0.306208	1.181243	94.820577	0.010825	0.382993	77.611905	77.611905	77.611905	0.545805	5.698228	2.830000	724.723238	261.424340	11.598761
352.033384	1.140839	0.291666	1.177533	94.999748	0.010843	0.381088	76.646041	76.646041	76.646041	0.527611	5.817536	2.830000	723.286448	260.999808	11.698609
357.104260	1.140090	0.277305	1.173330	95.172421	0.010861	0.379191	75.699760	75.699760	75.699760	0.509111	5.935564	2.830000	721.850223	260.577118	11.799670
362.248179	1.138621	0.263172	1.168639	95.338709	0.010878	0.377307	74.774377	74.774377	74.774377	0.490323	6.052312	2.830000	720.413382	260.156052	11.902138
367.466194	1.136439	0.249318	1.163466	95.498741	0.010896	0.375441	73.871218	73.871218	73.871218	0.471260	6.167812	2.830000	718.974472	259.736304	12.006214
372.759372	1.133558	0.235791	1.157821	95.652675	0.010913	0.373597	72.991623	72.991623	72.991623	0.451941	6.282125	2.830000	717.531770	259.317475	12.112100
378.128796	1.129991	0.222641	1.151716	95.800689	0.010931	0.371781	72.136936	72.136936	72.136936	0.432382	6.395343	2.830000	716.083271	258.899071	12.219996
383.575563	1.125759	0.209919	1.145164	95.942993	0.010949	0.369997	71.308509	71.308509	71.308509	0.412603	6.507593	2.830000	714.626684	258.480500	12.330104
389.100789	1.120887	0.197674	1.138184	96.079825	0.010966	0.368249	70.507692	70.507692	70.507692	0.392626	6.619037	2.830000	713.159438	258.061069	12.442620
394.705603	1.115402	0.185956	1.130797	96.211457	0.010984	0.366541	69.735830	69.735830	69.735830	0.372474	6.729875	2.830000	711.678669	257.639978	12.557737
400.391152	1.109338	0.174810	1.123027	96.338199	0.011002	0.364877	68.994254	68.994254	68.994254	0.352174	6.840345	2.830000	710.181233	257.216327	12.675640
406.158599	1.102732	0.164285	1.114902	96.460397	0.011021	0.363260	68.284269	68.284269	68.284269	0.331759	6.950724	2.830000	708.663700	256.789105	12.796503
412.009123	1.095626	0.154422	1.106455	96.578440	0.011039	0.361693	67.607147	67.607147	67.607147	0.311264	7.061333	2.830000	707.122362	256.357192	12.920491
417.943921	1.088068	0.145265	1.097722	96.692765	0.011058	0.360180	66.964104	66.964104	66.964104	0.290734	7.172534	2.830000	705.553242	255.919362	13.047751
423.964207	1.080108	0.136851	1.088743	96.803854	0.011077	0.358723	66.356287	66.356287	66.356287	0.270219	7.284734	2.830000	703.952105	255.474277	13.178415
430.071212	1.071802	0.129215	1.079563	96.912242	0.011097	0.357322	65.784746	65.784746	65.784746	0.249780	7.398387	2.830000	702.314472	255.020495	13.312592
436.266186	1.063209	0.122389	1.070230	97.018519	0.011117	0.355981	65.250408	65.250408	65.250408	0.229485	7.513992	2.830000	700.635642	254.556465	13.450370
442.550395	1.054394	0.116398	1.060799	97.123329	0.011138	0.354698	64.754045	64.754045	64.754045	0.209418	7.632094	2.830000	698.910713	254.080536	13.591804
448.925126	1.045423	0.111263	1.051328	97.227373	0.011160	0.353475	64.296235	64.296235	64.296235	0.189672	7.753289	2.830000	697.134620	253.590962	13.736922
455.391681	1.036368	0.107001	1.041877	97.331410	0.011182	0.352311	63.877316	63.877316	63.877316	0.170357	7.878218	2.830000	695.302174	253.085905	13.885711
461.951385	1.027302	0.103621	1.032515	97.436253	0.011205	0.351204	63.497345	63.497345	63.497345	0.151597	8.007569	2.830000	693.408107	252.563452	14.038120
468.605578	1.018301	0.101126	1.023310	97.542770	0.011229	0.350153	63.156036	63.156036	63.156036	0.133531	8.142075	2.830000	691.447138	252.021624	14.194050
475.355621	1.009442	0.099512	1.014335	97.651872	0.011254	0.349154	62.852710	62.852710	62.852710	0.116314	8.282512	2.830000	689.414041	251.458394	14.353349
482.202895	1.000804	0.098767	1.005666	97.764513	0.011281	0.348203	62.586237	62.586237	62.586237	0.100113	8.429694	2.830000	687.303733	250.871707	14.515810
489.148802	0.992468	0.098872	0.997381	97.881673	0.011308	0.347296	62.354975	62.354975	62.354975	0.085109	8.584464	2.830000	685.111368	250.259511	14.681161
496.194760	0.984512	0.099799	0.989557	98.004348	0.011337	0.346427	62.156719	62.156719	62.156719	0.071491	8.747694	2.830000	682.832461	249.619784	14.849063
503.342213	0.977013	0.101513	0.982273	98.133529	0.011368	0.345589	61.988653	61.988653	61.988653	0.059451	8.920270	2.830000	680.463007	248.950572	15.019102
510.592621	0.970049	0.103969	0.975604	98.270188	0.011400	0.344775	61.847320	61.847320	61.847320	0.049179	9.103077	2.830000	677.999638	248.250037	15.190787
517.947468	0.963691	0.107114	0.969625	98.415247	0.011434	0.343974	61.728600	61.728600	61.728600	0.040857	9.296991	2.830000	675.439773	247.516504	15.363544
525.408258	0.958008	0.110887	0.964404	98.569556	0.011469	0.343179	61.627713	61.627713	61.627713	0.034646	9.502854	2.830000	672.781795	246.748521	15.536717
532.976517	0.953063	0.115216	0.960002	98.733866	0.011507	0.342377	61.539255	61.539255	61.539255	0.030681	9.721454	2.830000	670.025232	245.944919	15.709563
540.653794	0.948914	0.120023	0.956475	98.908795	0.011546	0.341557	61.457255	61.457255	61.457255	0.029058	9.953503	2.830000	667.170932	245.104886	15.881259
548.441658	0.945610	0.125224	0.953866	99.094806	0.011588	0.340706	61.375267	61.375267	61.375267	0.029828	10.199603	2.830000	664.221247	244.228032	16.050901
556.341702	0.943192	0.130724	0.952208	99.292179	0.011631	0.339812	61.286496	61.286496	61.286496	0.032986	10.460220	2.830000	661.180192	243.314465	16.217520
564.355543	0.941691	0.136425	0.951522	99.500986	0.011677	0.338861	61.183952	61.183952	61.183952	0.038467	10.735647	2.830000	658.053585	242.364864	16.380088
572.484820	0.941127	0.142221	0.951812	99.721077	0.011724	0.337839	61.060633	61.060633	61.060633	0.046142	11.025975	2.830000	654.849143	241.380538	16.537540
580.731195	0.941508	0.148004	0.953070	99.952069	0.011774	0.336732	60.909721	60.909721	60.909721	0.055818	11.331055	2.830000	651.576535	240.363483	16.688792
589.096355	0.942830	0.153662	0.955270	100.193346	0.011825	0.335528	60.724787	60.724787	60.724787	0.067243	11.650472	2.830000	648.247362	239.316419	16.832772
597.582011	0.945075	0.159082	0.958370	100.444058	0.011879	0.334214	60.499995	60.499995	60.499995	0.080110	11.983519	2.830000	644.875065	238.242805	16.968451
606.189899	0.948210	0.164152	0.962314	100.703146	0.011934	0.332779	60.230295	60.230295	60.230295	0.094074	12.329177	2.830000	641.474740	237.146829	17.094874
614.921780	0.952190	0.168760	0.967029	100.969353	0.011990	0.331214	59.911581	59.911581	59.911581	0.108757	12.686112	2.830000	638.062869	236.033366	17.211207
623.779440	0.956951	0.172800	0.972428	101.241263	0.012047	0.329511	59.540828	59.540828	59.540828	0.123767	13.052676	2.830000	634.656950	234.907904	17.316767
632.764690	0.962419	0.176173	0.978410	101.517330	0.012106	0.327664	59.116179	59.116179	59.116179	0.138714	13.426931	2.830000	631.275037	233.776426	17.411069
641.879368	0.968501	0.178787	0.984865	101.795915	0.012164	0.325672	58.636995	58.636995	58.636995	0.153219	13.806681	2.830000	627.935220	232.645268	17.493855
651.125339	0.975095	0.180560	0.991672	102.075330	0.012224	0.323535	58.103856	58.103856	58.103856	0.166932	14.189527	2.830000	624.655034	231.520936	17.565129
660.504493	0.982083	0.181427	0.998701	102.353878	0.012282	0.321255	57.518521	57.518521	57.518521	0.179541	14.572932	2.830000	621.450852	230.409904	17.625173
670.018750	0.989339	0.181333	1.005820	102.629884	0.012341	0.318841	56.883857	56.883857	56.883857	0.190777	14.954299	2.830000	618.337282	229.318398	17.674560
679.670056	0.996725	0.180243	1.012891	102.901742	0.012399	0.316300	56.203726	56.203726	56.203726	0.200422	15.331061	2.830000	615.326594	228.252162	17.714155
689.460384	1.004099	0.178141	1.019779	103.167935	0.012455	0.313646	55.482864	55.482864	55.482864	0.208312	15.700774	2.830000	612.428222	227.216252	17.745096
699.391737	1.011313	0.175031	1.026348	103.427071	0.012510	0.310895	54.726731	54.726731	54.726731	0.214333	16.061205	2.830000	609.648357	226.214829	17.768771
709.466146	1.018219	0.170938	1.032467	103.677899	0.012564	0.308062	53.941370	53.941370	53.941370	0.218422	16.410422	2.830000	606.989659	225.250992	17.786775
719.685673	1.024670	0.165911	1.038015	103.919331	0.012616	0.305168	53.133250	53.133250	53.133250	0.220560	16.746871	2.830000	604.451099	224.326649	17.800865
730.052407	1.030525	0.160020	1.042875	104.150457	0.012665	0.302233	52.309129	52.309129	52.309129	0.220770	17.069431	2.830000	602.027932	223.442428	17.812901
740.568469	1.035655	0.153357	1.046947	104.370551	0.012714	0.299277	51.475922	51.475922	51.475922	0.219105	17.377466	2.830000	599.711804	222.597639	17.824786
751.236010	1.039939	0.146037	1.050143	104.579083	0.012760	0.296324	50.640579	50.640579	50.640579	0.215651	17.670847	2.830000	597.490972	221.790275	17.838400
762.057212	1.043278	0.138193	1.052391	104.775724	0.012804	0.293393	49.809984	49.809984	49.809984	0.210514	17.949960	2.830000	595.350632	221.017065	17.855543
773.034288	1.045591	0.129976	1.053639	104.960353	0.012848	0.290504	48.990856	48.990856	48.990856	0.203818	18.215704	2.830000	593.273323	220.273559	17.877873
784.169484	1.046820	0.121551	1.053853	105.133058	0.012890	0.287676	48.189674	48.189674	48.189674	0.195702	18.469465	2.830000	591.239401	219.554241	17.906852
795.465078	1.046935	0.113093	1.053025	105.294143	0.012931	0.284926	47.412596	47.412596	47.412596	0.186316	18.713080	2.830000	589.227565	218.852676	17.943698
806.923378	1.045934	0.104786	1.051170	105.444135	0.012972	0.282268	46.665385	46.665385	46.665385	0.175824	18.948799	2.830000	587.215411	218.161670	17.989344
818.546731	1.043846	0.096812	1.048326	105.583786	0.013013	0.279713	45.953335	45.953335	45.953335	0.164398	19.179232	2.830000	585.180029	217.473445	18.044402
830.337512	1.040732	0.089351	1.044561	105.714075	0.013055	0.277271	45.281178	45.281178	45.281178	0.152228	19.407290	2.830000	583.098622	216.779838	18.109127
842.298134	1.036683	0.082574	1.039967	105.836214	0.013097	0.274945	44.652985	44.652985	44.652985	0.139517	19.636123	2.830000	580.949153	216.072503	18.183397
854.431043	1.031822	0.076636	1.034664	105.951644	0.013142	0.272737	44.072041	44.072041	44.072041	0.126490	19.869051	2.830000	578.711044	215.343134	18.266689
866.738721	1.026298	0.071673	1.028797	106.062029	0.013188	0.270646	43.540703	43.540703	43.540703	0.113393	20.109485	2.830000	576.365903	214.583711	18.358058
879.223685	1.020286	0.067792	1.022536	106.169234	0.013237	0.268665	43.060226	43.060226	43.060226	0.100499	20.360836	2.830000	573.898310	213.786767	18.456135
891.888489	1.013984	0.065072	1.016069	106.275305	0.013290	0.266783	42.630585	42.630585	42.630585	0.088107	20.626414	2.830000	571.296635	212.945680	18.559116
904.735724	1.007600	0.063554	1.009603	106.382416	0.013346	0.264988	42.250284	42.250284	42.250284	0.076539	20.909304	2.830000	568.553891	212.055000	18.664775
917.768017	1.001357	0.063241	1.003352	106.492816	0.013405	0.263261	41.916182	41.916182	41.916182	0.066132	21.212229	2.830000	565.668575	211.110791	18.770490
930.988035	0.995475	0.064094	0.997536	106.608745	0.013469	0.261580	41.623358	41.623358	41.623358	0.057222	21.537391	2.830000	562.645446	210.110993	18.873286
944.398480	0.990168	0.066030	0.992367	106.732333	0.013537	0.259923	41.365055	41.365055	41.365055	0.050129	21.886299	2.830000	559.496169	209.055774	18.969917
958.002097	0.985638	0.068926	0.988045	106.865492	0.013609	0.258263	41.132736	41.132736	41.132736	0.045127	22.259588	2.830000	556.239710	207.947840	19.056968
971.801667	0.982059	0.072619	0.984740	107.009788	0.013685	0.256573	40.916283	40.916283	40.916283	0.042415	22.656852	2.830000	552.902382	206.792676	19.131007
985.800014	0.979575	0.076907	0.982590	107.166321	0.013765	0.254825	40.704368	40.704368	40.704368	0.042089	23.076495	2.830000	549.517402	205.598649	19.188765
1000.000000	0.978290	0.081561	0.981684	107.335625	0.013847	0.252993	40.484991	40.484991	40.484991	0.044117	23.515646	2.830000	546.123882	204.376937	19.227356
1014.404530	0.978259	0.086329	0.982061	107.517585	0.013931	0.251055	40.246159	40.246159	40.246159	0.048327	23.970145	2.830000	542.765165	203.141223	19.244513
1029.016551	0.979485	0.090947	0.983698	107.711401	0.014016	0.248992	39.976659	39.976659	39.976659	0.054401	24.434645	2.830000	539.486560	201.907140	19.238825
1043.839051	0.981913	0.095151	0.986513	107.915608	0.014101	0.246791	39.666836	39.666836	39.666836	0.061899	24.902831	2.830000	536.332538	200.691443	19.209945
1058.875063	0.985432	0.098686	0.990361	108.128135	0.014185	0.244448	39.309294	39.309294	39.309294	0.070287	25.367764	2.830000	533.343632	199.510971	19.158740
1074.127661	0.989874	0.101325	0.995046	108.346421	0.014265	0.241965	38.899429	38.899429	38.899429	0.078981	25.822341	2.830000	530.553307	198.381456	19.087352
1089.599965	0.995019	0.102878	1.000324	108.567561	0.014342	0.239352	38.435754	38.435754	38.435754	0.087395	26.259809	2.830000	527.985150	197.316310	18.999148
1105.295141	1.000608	0.103206	1.005916	108.788479	0.014415	0.236627	37.919952	37.919952	37.919952	0.094985	26.674300	2.830000	525.650689	196.325507	18.898554
1121.216399	1.006346	0.102231	1.011525	109.006101	0.014482	0.233817	37.356712	37.356712	37.356712	0.101289	27.061319	2.830000	523.548122	195.414712	18.790768
1137.366994	1.011924	0.099944	1.016848	109.217526	0.014544	0.230951	36.753356	36.753356	36.753356	0.105947	27.418114	2.830000	521.662087	194.584732	18.681407
1153.750232	1.017034	0.096409	1.021593	109.420174	0.014600	0.228063	36.119324	36.119324	36.119324	0.108718	27.743909	2.830000	519.964489	193.831374	18.576092
1170.369462	1.021382	0.091767	1.025496	109.611911	0.014652	0.225189	35.465593	35.465593	35.465593	0.109472	28.039961	2.830000	518.416283	193.145686	18.480036
1187.228084	1.024715	0.086226	1.028337	109.791150	0.014700	0.222362	34.804068	34.804068	34.804068	0.108193	28.309467	2.830000	516.969990	192.514555	18.397676
1204.329547	1.026834	0.080059	1.029950	109.956924	0.014746	0.219614	34.146996	34.146996	34.146996	0.104955	28.557330	2.830000	515.572737	191.921579	18.332354
1221.677349	1.027607	0.073582	1.030238	110.108939	0.014790	0.216972	33.506410	33.506410	33.506410	0.099919	28.789828	2.830000	514.169558	191.348119	18.286094
1239.275037	1.026989	0.067143	1.029182	110.247609	0.014834	0.214456	32.893615	32.893615	32.893615	0.093317	29.014213	2.830000	512.706805	190.774463	18.259452
1257.126212	1.025022	0.061097	1.026842	110.374062	0.014881	0.212078	32.318687	32.318687	32.318687	0.085445	29.238280	2.830000	511.135512	190.181040	18.251455
1275.234525	1.021842	0.055780	1.023364	110.490135	0.014930	0.209843	31.789980	31.789980	31.789980	0.076662	29.469900	2.830000	509.414656	189.549642	18.259602
1293.603680	1.017671	0.051492	1.018973	110.598323	0.014984	0.207746	31.313614	31.313614	31.313614	0.067387	29.716544	2.830000	507.514227	188.864645	18.279947
1312.237433	1.012808	0.048465	1.013967	110.701701	0.015044	0.205773	30.892947	30.892947	30.892947	0.058094	29.984781	2.830000	505.418042	188.114208	18.307248
1331.139597	1.007609	0.046849	1.008698	110.803781	0.015110	0.203902	30.528063	30.528063	30.528063	0.049299	30.279756	2.830000	503.126108	187.291417	18.335204
1350.314038	1.002467	0.046691	1.003553	110.908314	0.015183	0.202103	30.215350	30.215350	30.215350	0.041543	30.604665	2.830000	500.656290	186.395308	18.356797
1369.764677	0.997780	0.047929	0.998930	111.019018	0.015262	0.200341	29.947258	29.947258	29.947258	0.035346	30.960255	2.830000	498.044877	185.431635	18.364768
1389.495494	0.993922	0.050391	0.995199	111.139260	0.015346	0.198578	29.712403	29.712403	29.712403	0.031157	31.344423	2.830000	495.345581	184.413223	18.352211
1409.510524	0.991212	0.053797	0.992671	111.271702	0.015434	0.196773	29.496122	29.496122	29.496122	0.029282	31.752016	2.830000	492.626540	183.359669	18.313290
1429.813862	0.989879	0.057784	0.991564	111.417969	0.015524	0.194893	29.281570	29.281570	29.281570	0.029823	32.174935	2.830000	489.965064	182.296221	18.244008
1450.409659	0.990040	0.061925	0.991975	111.578389	0.015614	0.192909	29.051316	29.051316	29.051316	0.032632	32.602652	2.830000	487.440264	181.251706	18.142912
1471.302129	0.991683	0.065768	0.993861	111.751868	0.015700	0.190803	28.789260	28.789260	28.789260	0.037305	33.023171	2.830000	485.124191	180.255596	18.011603
1492.495545	0.994656	0.068877	0.997038	111.935940	0.015781	0.188571	28.482576	28.482576	28.482576	0.043220	33.424374	2.830000	483.072687	179.334510	17.854887
1513.994242	0.998675	0.070872	1.001187	112.126992	0.015854	0.186223	28.123316	28.123316	28.123316	0.049616	33.795566	2.830000	481.317440	178.508680	17.680469
1535.802619	1.003346	0.071473	1.005888	112.320632	0.015918	0.183783	27.709392	27.709392	27.709392	0.055698	34.128954	2.830000	479.860757	177.789004	17.498158
1557.925134	1.008194	0.070535	1.010659	112.512163	0.015973	0.181286	27.244781	27.244781	27.244781	0.060739	34.420776	2.830000	478.674120	177.175273	17.318702
1580.366314	1.012714	0.068071	1.015000	112.697074	0.016020	0.178773	26.738973	26.738973	26.738973	0.064163	34.671854	2.830000	477.700853	176.655912	17.152425
1603.130749	1.016422	0.064261	1.018451	112.871492	0.016060	0.176291	26.205831	26.205831	26.205831	0.065592	34.887507	2.830000	476.862456	176.209260	17.007915
1626.223094	1.018908	0.059440	1.020640	113.032576	0.016097	0.173882	25.662083	25.662083	25.662083	0.064863	35.076873	2.830000	476.067581	175.806132	16.890956
1649.648074	1.019894	0.054067	1.021326	113.178794	0.016133	0.171581	25.125670	25.125670	25.125670	0.062024	35.251791	2.830000	475.222383	175.413221	16.803834
1673.410480	1.019269	0.048678	1.020431	113.310109	0.016172	0.169414	24.614065	24.614065	24.614065	0.057316	35.425445	2.830000	474.241108	174.996882	16.745045
1697.515172	1.017111	0.043829	1.018055	113.428040	0.016215	0.167391	24.142655	24.142655	24.142655	0.051147	35.610892	2.830000	473.055987	174.526941	16.709408
1721.967081	1.013689	0.040020	1.014479	113.535601	0.016266	0.165507	23.723176	23.723176	23.723176	0.044081	35.819607	2.830000	471.625786	173.980252	16.688511
1746.771208	1.009438	0.037637	1.010139	113.637086	0.016326	0.163744	23.362262	23.362262	23.362262	0.036800	36.060077	2.830000	469.942339	173.343812	16.671495
1771.932627	1.004911	0.036893	1.005588	113.737684	0.016395	0.162069	23.060196	23.060196	23.060196	0.030068	36.336533	2.830000	468.034239	172.617156	16.646171
1797.456484	1.000713	0.037787	1.001427	113.842898	0.016471	0.160437	22.810132	22.810132	22.810132	0.024654	36.647964	2.830000	465.966556	171.813649	16.600473
1823.348001	0.997421	0.040100	0.998227	113.957815	0.016554	0.158802	22.598134	22.598134	22.598134	0.021218	36.987630	2.830000	463.835365	170.960129	16.524201
1849.612473	0.995501	0.043403	0.996447	114.086287	0.016638	0.157116	22.404398	22.404398	22.404398	0.020183	37.343388	2.830000	461.756267	170.094336	16.410871
1876.255272	0.995233	0.047115	0.996348	114.230202	0.016720	0.155342	22.205840	22.205840	22.205840	0.021611	37.699088	2.830000	459.847299	169.259877	16.259322
1903.281848	0.996659	0.050576	0.997941	114.389015	0.016795	0.153459	21.979794	21.979794	21.979794	0.025146	38.037060	2.830000	458.208442	168.499087	16.074599
1930.697729	0.999557	0.053145	1.000969	114.559697	0.016861	0.151466	21.708104	21.708104	21.708104	0.030049	38.341353	2.830000	456.901836	167.845015	15.867662
1958.508523	1.003467	0.054307	1.004935	114.737169	0.016914	0.149381	21.380599	21.380599	21.380599	0.035339	38.601008	2.830000	455.937645	167.314409	15.653734
1986.719919	1.007744	0.053764	1.009177	114.915137	0.016956	0.147244	20.997056	20.997056	20.997056	0.039993	38.812460	2.830000	455.269668	166.903658	15.449531
2015.337686	1.011666	0.051501	1.012976	115.087160	0.016988	0.145104	20.567194	20.567194	20.567194	0.043138	38.980399	2.830000	454.802282	166.588876	15.270014
2044.367679	1.014551	0.047804	1.015677	115.247728	0.017014	0.143013	20.108871	20.108871	20.108871	0.044192	39.116907	2.830000	454.407247	166.330149	15.125467
2073.815835	1.015887	0.043224	1.016806	115.393183	0.017040	0.141018	19.645007	19.645007	19.645007	0.042938	39.239153	2.830000	453.946676	166.078851	15.019535
2103.688178	1.015431	0.038493	1.016161	115.522354	0.017070	0.139150	19.199882	19.199882	19.199882	0.039524	39.366252	2.830000	453.297716	165.786428	14.948533
2133.990819	1.013277	0.034387	1.013860	115.636844	0.017109	0.137421	18.795290	18.795290	18.795290	0.034443	39.515871	2.830000	452.375037	165.413149	14.901986
2164.729954	1.009845	0.031582	1.010339	115.740908	0.017158	0.135819	18.446879	18.446879	18.446879	0.028469	39.701018	2.830000	451.148068	164.935652	14.864280
2195.911873	1.005821	0.030515	1.006284	115.840881	0.017219	0.134312	18.161000	18.161000	18.161000	0.022581	39.927350	2.830000	449.650298	164.352320	14.817234
2227.542952	1.002028	0.031282	1.002516	115.944136	0.017289	0.132850	17.932592	17.932592	17.932592	0.017818	40.191432	2.830000	447.977874	163.685415	14.743465
2259.629662	0.999264	0.033599	0.999828	116.057638	0.017364	0.131378	17.744921	17.744921	17.744921	0.015078	40.480495	2.830000	446.274993	162.978731	14.630190
2292.178566	0.998126	0.036840	0.998805	116.186333	0.017438	0.129847	17.571999	17.571999	17.571999	0.014874	40.774338	2.830000	444.705549	162.289804	14.472791
2325.196322	0.998868	0.040157	0.999674	116.331796	0.017504	0.128221	17.383927	17.383927	17.383927	0.017136	41.049599	2.830000	443.414808	161.677088	14.276974
2358.689683	1.001319	0.042662	1.002227	116.491608	0.017557	0.126493	17.154187	17.154187	17.154187	0.021169	41.285706	2.830000	442.490359	161.184705	14.058380
2392.665500	1.004899	0.043632	1.005846	116.659774	0.017596	0.124685	16.866737	16.866737	16.866737	0.025815	41.470789	2.830000	441.934922	160.829420	13.839096
2427.130723	1.008733	0.042702	1.009636	116.828138	0.017622	0.122842	16.520447	16.520447	16.520447	0.029780	41.605394	2.830000	441.661538	160.594681	13.641842
2462.092401	1.011859	0.039976	1.012649	116.988396	0.017640	0.121022	16.129446	16.129446	16.129446	0.031985	41.702581	2.830000	441.514157	160.434210	13.483668
2497.557686	1.013474	0.036027	1.014115	117.134163	0.017656	0.119280	15.719479	15.719479	15.719479	0.031820	41.784409	2.830000	441.307701	160.284087	13.371244
2533.533832	1.013156	0.031768	1.013654	117.262575	0.017679	0.117656	15.321583	15.321583	15.321583	0.029260	41.876085	2.830000	440.876136	160.079502	13.299018
2570.028197	1.010997	0.028220	1.011391	117.375124	0.017713	0.116162	14.964652	14.964652	14.964652	0.024851	41.999419	2.830000	440.116485	159.771749	13.250491
2607.048246	1.007607	0.026228	1.007949	117.477498	0.017761	0.114780	14.668205	14.668205	14.668205	0.019614	42.166985	2.830000	439.019006	159.341748	13.202163
2644.601552	1.003960	0.026219	1.004302	117.578361	0.017820	0.113465	14.436638	14.436638	14.436638	0.014845	42.378124	2.830000	437.675894	158.807135	13.129480
2682.695795	1.001130	0.028047	1.001522	117.687122	0.017886	0.112157	14.256512	14.256512	14.256512	0.011809	42.617958	2.830000	436.262698	158.220240	13.013894
2721.338768	0.999973	0.031010	1.000454	117.811106	0.017951	0.110799	14.098738	14.098738	14.098738	0.011332	42.860606	2.830000	434.991118	157.655094	12.849371
2760.538375	1.000850	0.034034	1.001429	117.953000	0.018004	0.109353	13.926567	13.926567	13.926567	0.013449	43.076853	2.830000	434.041800	157.184685	12.645882
2800.302634	1.003477	0.035998	1.004123	118.109614	0.018042	0.107815	13.707692	13.707692	13.707692	0.017298	43.244403	2.830000	433.498662	156.854950	12.427429
2840.639679	1.006981	0.036098	1.007628	118.272709	0.018064	0.106219	13.425928	13.425928	13.425928	0.021407	43.356636	2.830000	433.312675	156.666166	12.224172
2881.557759	1.010167	0.034151	1.010744	118.431711	0.018075	0.104623	13.087324	13.087324	13.087324	0.024238	43.425650	2.830000	433.314083	156.570951	12.061418
2923.065245	1.011918	0.030687	1.012383	118.577321	0.018084	0.103090	12.718144	12.718144	12.718144	0.024738	43.478025	2.830000	433.270651	156.490616	11.950152
2965.170628	1.011611	0.026800	1.011966	118.704730	0.018101	0.101666	12.355896	12.355896	12.355896	0.022661	43.545244	2.830000	432.969777	156.343222	11.882915
3007.882518	1.009369	0.023765	1.009649	118.815426	0.018133	0.100363	12.036741	12.036741	12.036741	0.018628	43.652490	2.830000	432.295338	156.072951	11.836182
3051.209653	1.006048	0.022565	1.006301	118.916984	0.018179	0.099155	11.782910	11.782910	11.782910	0.013958	43.809324	2.830000	431.274318	155.671434	11.778272
3095.160895	1.002944	0.023495	1.003219	119.020669	0.018236	0.097985	11.593596	11.593596	11.593596	0.010278	44.005085	2.830000	430.075809	155.183950	11.680709
3139.745234	1.001296	0.026011	1.001634	119.137279	0.018294	0.096788	11.443102	11.443102	11.443102	0.008942	44.211379	2.830000	428.954554	154.695776	11.529992
3184.971790	1.001782	0.028903	1.002199	119.272566	0.018341	0.095514	11.289210	11.289210	11.289210	0.010395	44.392669	2.830000	428.149484	154.299222	11.335022
3230.849813	1.004191	0.030773	1.004662	119.424344	0.018370	0.094155	11.090644	11.090644	11.090644	0.013852	44.522050	2.830000	427.774908	154.052182	11.125212
3277.388687	1.007467	0.030630	1.007932	119.583060	0.018383	0.092744	10.826109	10.826109	10.826109	0.017605	44.594683	2.830000	427.759579	153.948547	10.937965
3324.597932	1.010135	0.028366	1.010533	119.735904	0.018386	0.091347	10.504701	10.504701	10.504701	0.019836	44.630919	2.830000	427.872390	153.918488	10.801016
3372.487204	1.010966	0.024856	1.011272	119.872554	0.018393	0.090029	10.162025	10.162025	10.162025	0.019452	44.666947	2.830000	427.826661	153.860182	10.719007
3421.066299	1.009577	0.021584	1.009808	119.989929	0.018414	0.088822	9.844318	9.844318	9.844318	0.016540	44.737919	2.830000	427.413134	153.687147	10.671010
3470.345152	1.006653	0.019954	1.006851	120.093886	0.018452	0.087716	9.587727	9.587727	9.587727	0.012330	44.861428	2.830000	426.601469	153.369475	10.619702
3520.333844	1.003657	0.020583	1.003868	120.196945	0.018503	0.086658	9.400760	9.400760	9.400760	0.008722	45.028124	2.830000	425.564596	152.951248	10.528500
3571.042600	1.002124	0.022951	1.002387	120.312472	0.018553	0.085577	9.257759	9.257759	9.257759	0.007430	45.204402	2.830000	424.605071	152.533566	10.380290
3622.481792	1.002858	0.025612	1.003185	120.447614	0.018591	0.084422	9.109474	9.109474	9.109474	0.009024	45.348611	2.830000	424.001911	152.224483	10.188667
3674.661941	1.005453	0.026927	1.005813	120.598890	0.018609	0.083191	8.908956	8.908956	8.908956	0.012464	45.434556	2.830000	423.850429	152.077569	9.992837
3727.593720	1.008453	0.025965	1.008787	120.753658	0.018611	0.081931	8.638917	8.638917	8.638917	0.015640	45.468064	2.830000	423.995993	152.056971	9.835875
3781.287957	1.010133	0.023089	1.010397	120.897110	0.018612	0.080714	8.322544	8.322544	8.322544	0.016622	45.484437	2.830000	424.116004	152.055656	9.739005
3835.755635	1.009511	0.019799	1.009705	121.020749	0.018624	0.079594	8.010574	8.010574	8.010574	0.014763	45.527828	2.830000	423.906094	151.957512	9.688598
3891.007893	1.006975	0.017880	1.007134	121.127530	0.018654	0.078576	7.752544	7.752544	7.752544	0.011035	45.625261	2.830000	423.261220	151.706026	9.643547
3947.056035	1.004108	0.018303	1.004275	121.230656	0.018699	0.077611	7.567510	7.567510	7.567510	0.007551	45.769659	2.830000	422.348325	151.340984	9.558869
4003.911523	1.002734	0.020576	1.002945	121.346006	0.018744	0.076626	7.430052	7.430052	7.430052	0.006385	45.922012	2.830000	421.518259	150.979666	9.413824
4061.585988	1.003746	0.022989	1.004009	121.481862	0.018773	0.075569	7.283286	7.283286	7.283286	0.008184	46.034996	2.830000	421.085638	150.744446	9.228004
4120.091227	1.006453	0.023697	1.006732	121.632738	0.018782	0.074447	7.075991	7.075991	7.075991	0.011553	46.085965	2.830000	421.106886	150.677043	9.050755
4179.439206	1.008968	0.021995	1.009207	121.782606	0.018779	0.073319	6.799340	6.799340	6.799340	0.013983	46.094722	2.830000	421.326439	150.704076	8.926939
4239.642065	1.009501	0.018886	1.009678	121.915933	0.018781	0.072259	6.494193	6.494193	6.494193	0.013662	46.110111	2.830000	421.350934	150.686944	8.864038
4300.712118	1.007677	0.016420	1.007811	122.028760	0.018801	0.071298	6.222788	6.222788	6.222788	0.010723	46.174967	2.830000	420.930694	150.521122	8.826048
4362.661857	1.004875	0.016207	1.005006	122.132015	0.018840	0.070407	6.024614	6.024614	6.024614	0.007183	46.294610	2.830000	420.148218	150.213926	8.758509
4425.503952	1.003250	0.018164	1.003415	122.244138	0.018881	0.069512	5.885657	5.885657	5.885657	0.005597	46.430782	2.830000	419.373425	149.884977	8.628682
4489.251258	1.004077	0.020498	1.004286	122.377049	0.018907	0.068553	5.745377	5.745377	5.745377	0.007098	46.529083	2.830000	418.988616	149.678675	8.453437
4553.916814	1.006669	0.021073	1.006890	122.525939	0.018911	0.067531	5.543506	5.543506	5.543506	0.010291	46.563742	2.830000	419.071117	149.644888	8.288876
4619.513847	1.008851	0.019176	1.009033	122.672560	0.018906	0.066511	5.271406	5.271406	5.271406	0.012339	46.561430	2.830000	419.311718	149.691077	8.183842
4686.055775	1.008755	0.016204	1.008885	122.800353	0.018910	0.065564	4.980776	4.980776	4.980776	0.011406	46.579328	2.830000	419.269301	149.658438	8.137133
4753.556208	1.006482	0.014524	1.006587	122.908719	0.018935	0.064709	4.740425	4.740425	4.740425	0.008195	46.655863	2.830000	418.751167	149.458756	8.097536
4822.028953	1.004093	0.015384	1.004211	123.014199	0.018974	0.063894	4.576800	4.576800	4.576800	0.005414	46.776119	2.830000	417.993370	149.155052	8.007306
4891.488015	1.003790	0.017716	1.003947	123.136351	0.019004	0.063042	4.447392	4.447392	4.447392	0.005497	46.882486	2.830000	417.467332	148.912145	7.854887
4961.947603	1.005846	0.019037	1.006026	123.279297	0.019013	0.062122	4.276522	4.276522	4.276522	0.008219	46.927631	2.830000	417.441315	148.844213	7.689504
5033.422128	1.008234	0.017801	1.008391	123.426875	0.019006	0.061181	4.028586	4.028586	4.028586	0.010733	46.922821	2.830000	417.702194	148.897462	7.575315
5105.926210	1.008557	0.015001	1.008668	123.558108	0.019006	0.060296	3.745290	3.745290	3.745290	0.010417	46.928327	2.830000	417.753344	148.898854	7.526431
5179.474679	1.006500	0.013255	1.006587	123.668263	0.019028	0.059500	3.505028	3.505028	3.505028	0.007497	46.992657	2.830000	417.314240	148.730357	7.491395
5254.082580	1.004245	0.014113	1.004344	123.774319	0.019063	0.058743	3.343510	3.343510	3.343510	0.004875	47.101925	2.830000	416.619229	148.453208	7.404464
5329.765172	1.004220	0.016351	1.004353	123.897969	0.019089	0.057948	3.213475	3.213475	3.213475	0.005244	47.191575	2.830000	416.191535	148.251204	7.255453
5406.537936	1.006431	0.017197	1.006578	124.041803	0.019092	0.057092	3.032028	3.032028	3.032028	0.008038	47.216023	2.830000	416.274422	148.231642	7.104868
5484.416576	1.008337	0.015415	1.008455	124.185458	0.019083	0.056231	2.774352	2.774352	2.774352	0.009896	47.202808	2.830000	416.536489	148.296854	7.017205
5563.417021	1.007712	0.012824	1.007794	124.308548	0.019089	0.055442	2.504475	2.504475	2.504475	0.008559	47.222158	2.830000	416.441366	148.252746	6.984972
5643.555431	1.005328	0.012236	1.005403	124.414656	0.019117	0.054725	2.301833	2.301833	2.301833	0.005506	47.304479	2.830000	415.878672	148.036965	6.935956
5724.848197	1.004115	0.014052	1.004213	124.527946	0.019148	0.054009	2.166215	2.166215	2.166215	0.004321	47.402115	2.830000	415.313698	147.799263	6.818353
5807.311946	1.005579	0.015669	1.005701	124.663988	0.019157	0.053234	2.013649	2.013649	2.013649	0.006357	47.445388	2.830000	415.230905	147.723726	6.667233
5890.963548	1.007799	0.014699	1.007906	124.809210	0.019149	0.052429	1.781049	1.781049	1.781049	0.008800	47.432984	2.830000	415.503575	147.789658	6.563369
5975.820111	1.007823	0.012147	1.007896	124.937797	0.019149	0.051676	1.510876	1.510876	1.510876	0.008297	47.436083	2.830000	415.540086	147.791795	6.526710
6061.898993	1.005641	0.011178	1.005703	125.045944	0.019172	0.050998	1.296560	1.296560	1.296560	0.005435	47.503665	2.830000	415.069735	147.613143	6.488033
6149.217802	1.004297	0.012798	1.004379	125.157785	0.019201	0.050330	1.156292	1.156292	1.156292	0.004037	47.594560	2.830000	414.525096	147.388500	6.381364
6237.794396	1.005683	0.014356	1.005786	125.292539	0.019209	0.049608	1.003736	1.003736	1.003736	0.005953	47.631991	2.830000	414.458356	147.323993	6.237961
6327.646895	1.007736	0.013257	1.007823	125.436251	0.019200	0.048860	0.769398	0.769398	0.769398	0.008200	47.615347	2.830000	414.735987	147.396746	6.145043
6418.793677	1.007371	0.010853	1.007430	125.561506	0.019202	0.048165	0.505448	0.505448	0.505448	0.007302	47.623562	2.830000	414.715835	147.381607	6.116171
6511.253386	1.005174	0.010505	1.005229	125.668588	0.019227	0.047537	0.309327	0.309327	0.309327	0.004537	47.696376	2.830000	414.212195	147.189670	6.068935
6605.044933	1.004597	0.012393	1.004674	125.785916	0.019250	0.046899	0.174175	0.174175	0.174175	0.004099	47.771440	2.830000	413.798266	147.010502	5.950183
6700.187504	1.006533	0.013119	1.006618	125.925800	0.019249	0.046207	-0.004780	-0.004780	-0.004780	0.006538	47.780426	2.830000	413.916870	147.018919	5.822739
6796.700558	1.007751	0.011164	1.007813	126.063627	0.019241	0.045520	-0.261354	-0.261354	-0.261354	0.007660	47.762258	2.830000	414.144200	147.084866	5.765935
6894.603838	1.006204	0.009512	1.006249	126.178056	0.019254	0.044901	-0.499561	-0.499561	-0.499561	0.005491	47.800023	2.830000	413.879384	146.984673	5.742176
6993.917368	1.004586	0.010646	1.004643	126.287450	0.019280	0.044314	-0.654508	-0.654508	-0.654508	0.003653	47.879656	2.830000	413.368180	146.781783	5.658725
7094.661463	1.005733	0.012169	1.005806	126.419053	0.019288	0.043681	-0.807078	-0.807078	-0.807078	0.005250	47.911671	2.830000	413.297928	146.724226	5.528714
7196.856730	1.007516	0.010969	1.007576	126.560294	0.019278	0.043025	-1.043598	-1.043598	-1.043598	0.007210	47.890760	2.830000	413.571159	146.802176	5.451364
7300.524071	1.006622	0.008945	1.006661	126.680817	0.019283	0.042424	-1.296469	-1.296469	-1.296469	0.005797	47.907864	2.830000	413.464040	146.759071	5.430535
7405.684692	1.004772	0.009560	1.004817	126.788891	0.019308	0.041868	-1.467808	-1.467808	-1.467808	0.003594	47.980880	2.830000	412.972891	146.569049	5.365639
7512.360102	1.005534	0.011205	1.005596	126.916581	0.019318	0.041278	-1.616431	-1.616431	-1.616431	0.004727	48.018567	2.830000	412.838781	146.492155	5.242223
7620.572122	1.007337	0.010240	1.007389	127.057415	0.019308	0.040659	-1.847079	-1.847079	-1.847079	0.006771	47.997827	2.830000	413.107156	146.568994	5.163270
7730.342884	1.006505	0.008284	1.006539	127.178456	0.019313	0.040089	-2.100115	-2.100115	-2.100115	0.005468	48.012091	2.830000	413.019218	146.533292	5.143753
7841.694843	1.004791	0.009003	1.004831	127.287225	0.019337	0.039561	-2.270866	-2.270866	-2.270866	0.003435	48.081034	2.830000	412.555697	146.353904	5.078376
7954.650775	1.005801	0.010436	1.005855	127.416825	0.019343	0.038998	-2.428202	-2.428202	-2.428202	0.004837	48.107886	2.830000	412.491910	146.304741	4.960068
8069.233784	1.007280	0.009091	1.007321	127.555577	0.019333	0.038415	-2.671126	-2.671126	-2.671126	0.006457	48.085325	2.830000	412.748769	146.382096	4.897668
8185.467307	1.005944	0.007594	1.005973	127.671734	0.019343	0.037887	-2.911692	-2.911692	-2.911692	0.004616	48.113215	2.830000	412.550534	146.307624	4.878586
8303.375120	1.004837	0.008905	1.004876	127.783981	0.019364	0.037382	-3.068825	-3.068825	-3.068825	0.003387	48.176403	2.830000	412.149454	146.147416	4.795347
8422.981339	1.006464	0.009546	1.006509	127.919718	0.019362	0.036834	-3.253885	-3.253885	-3.253885	0.005450	48.177630	2.830000	412.265832	146.166317	4.689675
8544.310429	1.006923	0.007625	1.006952	128.051346	0.019356	0.036296	-3.514139	-3.514139	-3.514139	0.005775	48.163948	2.830000	412.412582	146.211627	4.657468
8667.387209	1.005125	0.007384	1.005152	128.161142	0.019374	0.035812	-3.719023	-3.719023	-3.719023	0.003516	48.216041	2.830000	412.040997	146.072291	4.620733
8792.236851	1.005480	0.008944	1.005520	128.284272	0.019385	0.035313	-3.875149	-3.875149	-3.875149	0.004110	48.252636	2.830000	411.870964	145.990537	4.515249
8918.884894	1.007015	0.007959	1.007046	128.422468	0.019375	0.034786	-4.112077	-4.112077	-4.112077	0.005886	48.230460	2.830000	412.121060	146.066141	4.449985
9047.357242	1.005776	0.006575	1.005798	128.539339	0.019383	0.034306	-4.355795	-4.355795	-4.355795	0.004201	48.254128	2.830000	411.951750	146.002748	4.432884
9177.680175	1.005015	0.007946	1.005047	128.653594	0.019401	0.033843	-4.517808	-4.517808	-4.517808	0.003381	48.307309	2.830000	411.619914	145.868918	4.349916
9309.880348	1.006683	0.007946	1.006714	128.790379	0.019394	0.033342	-4.727672	-4.727672	-4.727672	0.005441	48.295175	2.830000	411.809870	145.919694	4.263683
9443.984802	1.006194	0.006186	1.006213	128.914195	0.019395	0.032868	-4.987690	-4.987690	-4.987690	0.004656	48.298020	2.830000	411.805531	145.914912	4.246559
9580.020968	1.004921	0.007089	1.004946	129.025249	0.019414	0.032429	-5.166094	-5.166094	-5.166094	0.003147	48.352482	2.830000	411.438352	145.773007	4.183621
9718.016671	1.006387	0.007607	1.006416	129.158866	0.019411	0.031955	-5.362586	-5.362586	-5.362586	0.005014	48.350172	2.830000	411.552635	145.796511	4.091344
9858.000137	1.006304	0.005845	1.006321	129.285967	0.019408	0.031494	-5.627059	-5.627059	-5.627059	0.004749	48.344088	2.830000	411.622273	145.817434	4.070708
10000.000000	1.004930	0.006508	1.004951	129.396638	0.019426	0.031073	-5.816236	-5.816236	-5.816236	0.003083	48.395483	2.830000	411.267268	145.682012	4.016966
10144.045304	1.006290	0.007105	1.006315	129.528867	0.019424	0.030621	-6.013353	-6.013353	-6.013353	0.004829	48.395143	2.830000	411.359809	145.698882	3.926853
10290.165513	1.006179	0.005410	1.006194	129.655637	0.019421	0.030180	-6.279695	-6.279695	-6.279695	0.004554	48.389222	2.830000	411.426368	145.719027	3.907165
10438.390514	1.004949	0.006184	1.004968	129.766962	0.019438	0.029775	-6.469717	-6.469717	-6.469717	0.003066	48.438051	2.830000	411.091218	145.590742	3.851561
10588.750628	1.006372	0.006477	1.006392	129.900156	0.019434	0.029339	-6.679914	-6.679914	-6.679914	0.004874	48.431330	2.830000	411.223445	145.623645	3.769296
10741.276608	1.005837	0.004937	1.005849	130.023260	0.019434	0.028922	-6.945226	-6.945226	-6.945226	0.004095	48.434083	2.830000	411.215700	145.618386	3.754241
10895.999653	1.005078	0.006054	1.005097	130.137041	0.019449	0.028530	-7.129642	-7.129642	-7.129642	0.003211	48.477836	2.830000	410.929313	145.505902	3.687210
11052.951411	1.006479	0.005640	1.006495	130.271783	0.019442	0.028109	-7.365765	-7.365765	-7.365765	0.004956	48.460742	2.830000	411.125222	145.564723	3.622215
11212.163986	1.005312	0.004655	1.005323	130.388465	0.019449	0.027720	-7.617962	-7.617962	-7.617962	0.003425	48.481418	2.830000	410.974527	145.508847	3.606503
11373.669943	1.005504	0.005900	1.005521	130.508838	0.019458	0.027333	-7.804091	-7.804091	-7.804091	0.003742	48.508771	2.830000	410.828569	145.444380	3.525662
11537.502317	1.006266	0.004618	1.006277	130.641106	0.019450	0.026932	-8.071078	-8.071078	-8.071078	0.004644	48.490132	2.830000	411.008962	145.502637	3.489642
11703.694619	1.004926	0.004818	1.004938	130.752857	0.019464	0.026567	-8.291506	-8.291506	-8.291506	0.002957	48.529240	2.830000	410.727887	145.397650	3.454030
11872.280844	1.006124	0.005241	1.006138	130.882997	0.019461	0.026182	-8.509035	-8.509035	-8.509035	0.004509	48.526404	2.830000	410.815684	145.417195	3.377891
12043.295474	1.005479	0.003939	1.005487	131.004675	0.019463	0.025811	-8.780721	-8.780721	-8.780721	0.003637	48.531326	2.830000	410.787941	145.405333	3.364231
12216.773490	1.005300	0.005094	1.005313	131.121899	0.019473	0.025455	-8.977628	-8.977628	-8.977628	0.003462	48.562436	2.830000	410.597659	145.327710	3.294638
12392.750375	1.006098	0.003977	1.006106	131.253725	0.019466	0.025082	-9.248406	-9.248406	-9.248406	0.004453	48.544243	2.830000	410.773506	145.384530	3.257325
12571.262124	1.004886	0.004258	1.004895	131.365966	0.019479	0.024741	-9.475924	-9.475924	-9.475924	0.002917	48.580203	2.830000	410.515167	145.288012	3.221900
12752.345251	1.006083	0.004329	1.006093	131.496629	0.019474	0.024380	-9.713291	-9.713291	-9.713291	0.004472	48.571548	2.830000	410.636839	145.321770	3.156070
12936.036796	1.005074	0.003483	1.005080	131.614125	0.019480	0.024040	-9.980711	-9.980711	-9.980711	0.003162	48.587305	2.830000	410.522594	145.279293	3.141396
13122.374331	1.005641	0.004392	1.005650	131.737028	0.019484	0.023701	-10.195169	-10.195169	-10.195169	0.003928	48.600924	2.830000	410.469674	145.250686	3.069572
13311.395971	1.005459	0.003098	1.005464	131.862109	0.019481	0.023360	-10.481460	-10.481460	-10.481460	0.003684	48.595676	2.830000	410.524663	145.267831	3.052507
13503.140379	1.005188	0.004099	1.005197	131.978343	0.019491	0.023038	-10.696962	-10.696962	-10.696962	0.003362	48.624220	2.830000	410.341891	145.195160	2.992759
13697.646775	1.005722	0.002987	1.005727	132.107879	0.019485	0.022702	-10.982046	-10.982046	-10.982046	0.004062	48.609155	2.830000	410.484826	145.241737	2.962430
13894.954944	1.004910	0.003650	1.004916	132.221237	0.019496	0.022391	-11.212769	-11.212769	-11.212769	0.003024	48.641288	2.830000	410.260324	145.156611	2.918705
14095.105244	1.005803	0.002941	1.005807	132.351718	0.019490	0.022064	-11.489530	-11.489530	-11.489530	0.004208	48.625749	2.830000	410.415264	145.205981	2.876211
14298.138616	1.004781	0.003219	1.004786	132.464881	0.019500	0.021761	-11.737447	-11.737447	-11.737447	0.002890	48.655128	2.830000	410.203394	145.126981	2.844295
14504.096588	1.005768	0.002841	1.005772	132.594572	0.019495	0.021444	-12.008208	-12.008208	-12.008208	0.004209	48.642592	2.830000	410.338263	145.168555	2.795076
14713.021288	1.004721	0.002874	1.004725	132.708383	0.019504	0.021149	-12.269105	-12.269105	-12.269105	0.002853	48.668187	2.830000	410.151655	145.099374	2.769370
14924.955451	1.005691	0.002654	1.005694	132.837096	0.019499	0.020842	-12.539625	-12.539625	-12.539625	0.004159	48.658038	2.830000	410.267681	145.134239	2.718462
15139.942425	1.004677	0.002626	1.004680	132.951281	0.019508	0.020554	-12.807812	-12.807812	-12.807812	0.002843	48.681537	2.830000	410.096088	145.070676	2.694555
15358.026185	1.005599	0.002382	1.005602	133.079498	0.019503	0.020256	-13.084180	-13.084180	-13.084180	0.004097	48.671676	2.830000	410.207478	145.104316	2.645751
15579.251340	1.004644	0.002466	1.004647	133.193524	0.019512	0.019976	-13.354218	-13.354218	-13.354218	0.002851	48.695203	2.830000	410.036337	145.040792	2.620102
15803.663140	1.005475	0.002038	1.005477	133.321612	0.019507	0.019686	-13.641963	-13.641963	-13.641963	0.004002	48.683988	2.830000	410.154069	145.077466	2.576844
16031.307485	1.004660	0.002373	1.004663	133.435409	0.019516	0.019415	-13.909383	-13.909383	-13.909383	0.002928	48.708359	2.830000	409.979129	145.012077	2.545840
16262.230941	1.005266	0.001661	1.005267	133.562935	0.019511	0.019133	-14.212276	-14.212276	-14.212276	0.003802	48.696324	2.830000	410.096882	145.049914	2.511744
16496.480741	1.004783	0.002280	1.004785	133.677536	0.019519	0.018868	-14.475793	-14.475793	-14.475793	0.003152	48.719312	2.830000	409.937852	144.989293	2.472039
16734.104799	1.004929	0.001354	1.004930	133.802766	0.019515	0.018596	-14.792343	-14.792343	-14.792343	0.003435	48.710715	2.830000	410.020564	145.016073	2.449291
16975.151720	1.005011	0.002047	1.005013	133.920450	0.019520	0.018335	-15.058424	-15.058424	-15.058424	0.003534	48.726226	2.830000	409.925870	144.977400	2.400936
17219.670809	1.004540	0.001272	1.004541	134.040902	0.019521	0.018075	-15.377372	-15.377372	-15.377372	0.002986	48.728241	2.830000	409.918804	144.973301	2.385807
17467.712080	1.005166	0.001547	1.005167	134.163572	0.019521	0.017817	-15.662368	-15.662368	-15.662368	0.003851	48.729890	2.830000	409.934364	144.973721	2.337095
17719.326270	1.004375	0.001444	1.004376	134.278872	0.019526	0.017569	-15.966237	-15.966237	-15.966237	0.002819	48.745507	2.830000	409.821271	144.931644	2.316846
17974.564843	1.004936	0.000936	1.004937	134.404340	0.019523	0.017315	-16.283875	-16.283875	-16.283875	0.003671	48.736698	2.830000	409.911438	144.960042	2.282502
18233.480009	1.004650	0.001492	1.004651	134.519553	0.019529	0.017074	-16.571160	-16.571160	-16.571160	0.003263	48.754509	2.830000	409.790150	144.913413	2.245129
18496.124725	1.004378	0.000743	1.004378	134.640771	0.019528	0.016830	-16.905826	-16.905826	-16.905826	0.003008	48.753132	2.830000	409.810705	144.918995	2.228058
18762.552716	1.004914	0.000951	1.004915	134.762278	0.019528	0.016590	-17.209358	-17.209358	-17.209358	0.003767	48.754910	2.830000	409.820575	144.918225	2.184337
19032.818477	1.004257	0.001044	1.004258	134.877036	0.019534	0.016359	-17.523891	-17.523891	-17.523891	0.002891	48.770176	2.830000	409.710969	144.877261	2.161338
19306.977289	1.004452	0.000375	1.004452	135.000335	0.019531	0.016124	-17.865243	-17.865243	-17.865243	0.003291	48.763608	2.830000	409.776752	144.898180	2.136654
19585.085230	1.004692	0.000796	1.004692	135.118502	0.019534	0.015896	-18.172932	-18.172932	-18.172932	0.003614	48.772050	2.830000	409.730734	144.878106	2.095970
19867.199185	1.004068	0.000646	1.004069	135.234303	0.019537	0.015673	-18.506986	-18.506986	-18.506986	0.002813	48.782630	2.830000	409.655873	144.849910	2.077233
20000.000000	1.004570	0.000693	1.004570	135.292124	0.019536	0.015568	-18.656844	-18.656844	-18.656844	0.003528	48.779749	2.830000	409.690498	144.860106	2.054790
