Freq (hertz)	Ra (norm)	Xa (norm)	Za (norm)	SPL (dB)	Ze (ohms)	Xd (mm) 	WPhase (deg)	UPhase (deg)	CPhase (deg)	Delay (msec)	Efficiency (%)	Ein (volts)	Pin (watts)	Iin (amps)	ZePhase (deg)

10.000000	0.000454	0.025571	0.025575	71.075160	33.533164	1.563878	98.095774	98.095774	98.095774	4.004148	0.092394	2.830000	0.084055	0.084394	69.394027
10.144045	0.000467	0.025939	0.025943	71.204524	34.339890	1.542587	97.890327	97.890327	97.890327	3.920671	0.096985	2.830000	0.082498	0.082411	69.284510
10.290166	0.000481	0.026312	0.026317	71.333768	35.179758	1.521565	97.686253	97.686253	97.686253	3.839381	0.101775	2.830000	0.080990	0.080444	69.160333
10.438391	0.000495	0.026691	0.026696	71.462896	36.054836	1.500809	97.483519	97.483519	97.483519	3.760226	0.106771	2.830000	0.079530	0.078492	69.020654
10.588751	0.000509	0.027075	0.027080	71.591913	36.967358	1.480318	97.282093	97.282093	97.282093	3.683154	0.111979	2.830000	0.078118	0.076554	68.864557
10.741277	0.000524	0.027465	0.027470	71.720820	37.919750	1.460088	97.081939	97.081939	97.081939	3.608117	0.117405	2.830000	0.076752	0.074631	68.691037
10.896000	0.000539	0.027861	0.027866	71.849622	38.914641	1.440117	96.883026	96.883026	96.883026	3.535064	0.123056	2.830000	0.075432	0.072723	68.498997
11.052951	0.000555	0.028262	0.028267	71.978322	39.954889	1.420403	96.685320	96.685320	96.685320	3.463947	0.128937	2.830000	0.074157	0.070830	68.287233
11.212164	0.000571	0.028669	0.028674	72.106924	41.043603	1.400943	96.488787	96.488787	96.488787	3.394720	0.135054	2.830000	0.072926	0.068951	68.054420
11.373670	0.000587	0.029081	0.029087	72.235431	42.184166	1.381735	96.293393	96.293393	96.293393	3.327337	0.141413	2.830000	0.071738	0.067087	67.799105
11.537502	0.000604	0.029500	0.029506	72.363845	43.380268	1.362776	96.099106	96.099106	96.099106	3.261751	0.148020	2.830000	0.070593	0.065237	67.519683
11.703695	0.000622	0.029925	0.029931	72.492171	44.635934	1.344063	95.905890	95.905890	95.905890	3.197919	0.154879	2.830000	0.069489	0.063402	67.214385
11.872281	0.000640	0.030355	0.030362	72.620411	45.955562	1.325594	95.713712	95.713712	95.713712	3.135798	0.161997	2.830000	0.068427	0.061581	66.881253
12.043295	0.000658	0.030792	0.030799	72.748568	47.343958	1.307366	95.522538	95.522538	95.522538	3.075344	0.169379	2.830000	0.067405	0.059775	66.518120
12.216773	0.000677	0.031235	0.031243	72.876645	48.806381	1.289378	95.332335	95.332335	95.332335	3.016517	0.177028	2.830000	0.066423	0.057984	66.122578
12.392750	0.000697	0.031685	0.031693	73.004645	50.348590	1.271626	95.143067	95.143067	95.143067	2.959276	0.184950	2.830000	0.065480	0.056208	65.691954
12.571262	0.000717	0.032141	0.032149	73.132572	51.976891	1.254107	94.954702	94.954702	94.954702	2.903581	0.193147	2.830000	0.064575	0.054447	65.223266
12.752345	0.000738	0.032604	0.032612	73.260427	53.698189	1.236820	94.767203	94.767203	94.767203	2.849394	0.201625	2.830000	0.063708	0.052702	64.713187
12.936037	0.000759	0.033073	0.033082	73.388214	55.520051	1.219762	94.580538	94.580538	94.580538	2.796677	0.210385	2.830000	0.062878	0.050973	64.157997
13.122374	0.000782	0.033549	0.033558	73.515936	57.450756	1.202930	94.394672	94.394672	94.394672	2.745392	0.219431	2.830000	0.062085	0.049260	63.553526
13.311396	0.000804	0.034032	0.034041	73.643594	59.499356	1.186322	94.209570	94.209570	94.209570	2.695504	0.228765	2.830000	0.061329	0.047564	62.895093
13.503140	0.000828	0.034522	0.034532	73.771192	61.675726	1.169935	94.025198	94.025198	94.025198	2.646977	0.238388	2.830000	0.060608	0.045885	62.177434
13.697647	0.000852	0.035018	0.035029	73.898732	63.990612	1.153768	93.841521	93.841521	93.841521	2.599776	0.248302	2.830000	0.059922	0.044225	61.394620
13.894955	0.000876	0.035522	0.035533	74.026218	66.455652	1.137816	93.658504	93.658504	93.658504	2.553868	0.258507	2.830000	0.059271	0.042585	60.539960
14.095105	0.000902	0.036034	0.036045	74.153650	69.083383	1.122078	93.476113	93.476113	93.476113	2.509220	0.269003	2.830000	0.058655	0.040965	59.605898
14.298139	0.000928	0.036552	0.036564	74.281033	71.887188	1.106552	93.294312	93.294312	93.294312	2.465800	0.279789	2.830000	0.058072	0.039367	58.583891
14.504097	0.000955	0.037078	0.037090	74.408368	74.881184	1.091235	93.113067	93.113067	93.113067	2.423576	0.290864	2.830000	0.057523	0.037793	57.464279
14.713021	0.000982	0.037612	0.037624	74.535657	78.080008	1.076124	92.932343	92.932343	92.932343	2.382518	0.302225	2.830000	0.057007	0.036245	56.236138
14.924955	0.001011	0.038153	0.038166	74.662904	81.498449	1.061217	92.752104	92.752104	92.752104	2.342596	0.313871	2.830000	0.056524	0.034725	54.887136
15.139942	0.001040	0.038702	0.038716	74.790110	85.150864	1.046512	92.572316	92.572316	92.572316	2.303781	0.325796	2.830000	0.056074	0.033235	53.403379
15.358026	0.001070	0.039259	0.039273	74.917278	89.050295	1.032007	92.392942	92.392942	92.392942	2.266044	0.337998	2.830000	0.055656	0.031780	51.769280
15.579251	0.001101	0.039824	0.039839	75.044411	93.207158	1.017698	92.213947	92.213947	92.213947	2.229357	0.350470	2.830000	0.055269	0.030362	49.967460
15.803663	0.001133	0.040396	0.040412	75.171509	97.627368	1.003585	92.035296	92.035296	92.035296	2.193695	0.363207	2.830000	0.054915	0.028988	47.978730
16.031307	0.001166	0.040978	0.040994	75.298576	102.309725	0.989663	91.856953	91.856953	91.856953	2.159029	0.376202	2.830000	0.054592	0.027661	45.782187
16.262231	0.001200	0.041567	0.041584	75.425614	107.242380	0.975931	91.678882	91.678882	91.678882	2.125335	0.389449	2.830000	0.054301	0.026389	43.355527
16.496481	0.001235	0.042165	0.042183	75.552625	112.398254	0.962388	91.501047	91.501047	91.501047	2.092588	0.402939	2.830000	0.054040	0.025178	40.675656
16.734105	0.001271	0.042772	0.042791	75.679612	117.729395	0.949029	91.323411	91.323411	91.323411	2.060763	0.416662	2.830000	0.053811	0.024038	37.719745
16.975152	0.001308	0.043387	0.043407	75.806576	123.160593	0.935854	91.145940	91.145940	91.145940	2.029836	0.430611	2.830000	0.053613	0.022978	34.466874
17.219671	0.001346	0.044011	0.044032	75.933519	128.583032	0.922860	90.968595	90.968595	90.968595	1.999785	0.444773	2.830000	0.053445	0.022009	30.900399
17.467712	0.001385	0.044644	0.044666	76.060444	133.849580	0.910044	90.791340	90.791340	90.791340	1.970586	0.459140	2.830000	0.053308	0.021143	27.011086
17.719326	0.001425	0.045286	0.045309	76.187353	138.774176	0.897405	90.614139	90.614139	90.614139	1.942218	0.473698	2.830000	0.053202	0.020393	22.800874
17.974565	0.001466	0.045937	0.045961	76.314248	143.138379	0.884940	90.436955	90.436955	90.436955	1.914659	0.488437	2.830000	0.053126	0.019771	18.286814
18.233480	0.001509	0.046598	0.046623	76.441131	146.707762	0.872647	90.259750	90.259750	90.259750	1.887889	0.503343	2.830000	0.053082	0.019290	13.504346
18.496125	0.001552	0.047268	0.047294	76.568004	149.258641	0.860524	90.082487	90.082487	90.082487	1.861886	0.518404	2.830000	0.053067	0.018960	8.508735
18.762553	0.001597	0.047948	0.047975	76.694869	150.611551	0.848569	89.905128	89.905128	89.905128	1.836633	0.533605	2.830000	0.053084	0.018790	3.373564
19.032818	0.001644	0.048637	0.048665	76.821728	150.663340	0.836780	89.727636	89.727636	89.727636	1.812108	0.548933	2.830000	0.053131	0.018784	-1.814298
19.306977	0.001691	0.049337	0.049366	76.948584	149.407661	0.825154	89.549972	89.549972	89.549972	1.788294	0.564375	2.830000	0.053209	0.018941	-6.962678
19.585085	0.001740	0.050046	0.050076	77.075438	146.936375	0.813690	89.372098	89.372098	89.372098	1.765173	0.579914	2.830000	0.053318	0.019260	-11.983354
19.867199	0.001791	0.050766	0.050797	77.202293	143.421289	0.802385	89.193976	89.193976	89.193976	1.742726	0.595536	2.830000	0.053458	0.019732	-16.800368
20.153377	0.001843	0.051495	0.051528	77.329150	139.082991	0.791238	89.015566	89.015566	89.015566	1.720937	0.611228	2.830000	0.053630	0.020348	-21.355544
20.443677	0.001896	0.052236	0.052270	77.456012	134.156934	0.780247	88.836829	88.836829	88.836829	1.699789	0.626972	2.830000	0.053833	0.021095	-25.610524
20.738158	0.001951	0.052987	0.053023	77.582881	128.865425	0.769408	88.657727	88.657727	88.657727	1.679265	0.642755	2.830000	0.054068	0.021961	-29.545694
21.036882	0.002008	0.053748	0.053786	77.709758	123.399764	0.758722	88.478219	88.478219	88.478219	1.659350	0.658561	2.830000	0.054334	0.022934	-33.157108
21.339908	0.002066	0.054521	0.054560	77.836646	117.912499	0.748185	88.298264	88.298264	88.298264	1.640028	0.674375	2.830000	0.054633	0.024001	-36.452584
21.647300	0.002126	0.055304	0.055345	77.963547	112.517294	0.737795	88.117824	88.117824	88.117824	1.621285	0.690183	2.830000	0.054965	0.025152	-39.447877
21.959119	0.002187	0.056099	0.056142	78.090463	107.293303	0.727551	87.936856	87.936856	87.936856	1.603106	0.705969	2.830000	0.055329	0.026376	-42.163434
22.275430	0.002251	0.056905	0.056950	78.217396	102.291442	0.717452	87.755320	87.755320	87.755320	1.585477	0.721719	2.830000	0.055727	0.027666	-44.621914
22.596297	0.002316	0.057723	0.057769	78.344348	97.540887	0.707494	87.573175	87.573175	87.573175	1.568384	0.737420	2.830000	0.056158	0.029013	-46.846446
22.921786	0.002383	0.058552	0.058601	78.471321	93.054866	0.697676	87.390377	87.390377	87.390377	1.551814	0.753057	2.830000	0.056624	0.030412	-48.859494
23.251963	0.002452	0.059394	0.059444	78.598318	88.835411	0.687997	87.206886	87.206886	87.206886	1.535754	0.768616	2.830000	0.057124	0.031857	-50.682188
23.586897	0.002524	0.060247	0.060300	78.725340	84.877043	0.678454	87.022657	87.022657	87.022657	1.520192	0.784086	2.830000	0.057659	0.033342	-52.333975
23.926655	0.002597	0.061112	0.061167	78.852390	81.169503	0.669045	86.837648	86.837648	86.837648	1.505115	0.799452	2.830000	0.058229	0.034865	-53.832495
24.271307	0.002672	0.061990	0.062048	78.979470	77.699726	0.659770	86.651816	86.651816	86.651816	1.490512	0.814704	2.830000	0.058836	0.036422	-55.193590
24.620924	0.002749	0.062880	0.062940	79.106581	74.453212	0.650626	86.465115	86.465115	86.465115	1.476372	0.829829	2.830000	0.059479	0.038010	-56.431387
24.975577	0.002829	0.063783	0.063846	79.233727	71.414961	0.641612	86.277501	86.277501	86.277501	1.462682	0.844818	2.830000	0.060159	0.039628	-57.558434
25.335338	0.002911	0.064699	0.064765	79.360910	68.570092	0.632725	86.088928	86.088928	86.088928	1.449434	0.859658	2.830000	0.060878	0.041272	-58.585841
25.700282	0.002996	0.065628	0.065697	79.488131	65.904224	0.623964	85.899352	85.899352	85.899352	1.436616	0.874341	2.830000	0.061635	0.042941	-59.523438
26.070482	0.003082	0.066571	0.066642	79.615393	63.403716	0.615328	85.708725	85.708725	85.708725	1.424218	0.888857	2.830000	0.062431	0.044635	-60.379914
26.446016	0.003172	0.067526	0.067601	79.742699	61.055781	0.606815	85.517000	85.517000	85.517000	1.412230	0.903197	2.830000	0.063268	0.046351	-61.162949
26.826958	0.003264	0.068496	0.068573	79.870050	58.848542	0.598423	85.324129	85.324129	85.324129	1.400644	0.917355	2.830000	0.064145	0.048090	-61.879344
27.213388	0.003358	0.069479	0.069560	79.997449	56.771035	0.590150	85.130065	85.130065	85.130065	1.389450	0.931321	2.830000	0.065064	0.049849	-62.535121
27.605384	0.003456	0.070476	0.070561	80.124898	54.813183	0.581996	84.934758	84.934758	84.934758	1.378639	0.945090	2.830000	0.066025	0.051630	-63.135622
28.003026	0.003556	0.071487	0.071576	80.252400	52.965748	0.573957	84.738158	84.738158	84.738158	1.368202	0.958655	2.830000	0.067030	0.053431	-63.685595
28.406397	0.003659	0.072513	0.072605	80.379957	51.220285	0.566034	84.540214	84.540214	84.540214	1.358133	0.972010	2.830000	0.068080	0.055252	-64.189263
28.815578	0.003765	0.073553	0.073650	80.507571	49.569077	0.558224	84.340876	84.340876	84.340876	1.348422	0.985152	2.830000	0.069175	0.057092	-64.650395
29.230652	0.003874	0.074609	0.074709	80.635246	48.005082	0.550526	84.140092	84.140092	84.140092	1.339062	0.998075	2.830000	0.070316	0.058952	-65.072353
29.651706	0.003986	0.075679	0.075784	80.762983	46.521870	0.542939	83.937807	83.937807	83.937807	1.330046	1.010775	2.830000	0.071505	0.060832	-65.458148
30.078825	0.004102	0.076764	0.076874	80.890786	45.113574	0.535460	83.733970	83.733970	83.733970	1.321367	1.023250	2.830000	0.072743	0.062731	-65.810478
30.512097	0.004220	0.077865	0.077979	81.018656	43.774835	0.528088	83.528523	83.528523	83.528523	1.313018	1.035496	2.830000	0.074031	0.064649	-66.131767
30.951609	0.004343	0.078981	0.079101	81.146596	42.500757	0.520823	83.321413	83.321413	83.321413	1.304992	1.047512	2.830000	0.075369	0.066587	-66.424192
31.397452	0.004469	0.080114	0.080238	81.274610	41.286864	0.513662	83.112582	83.112582	83.112582	1.297282	1.059295	2.830000	0.076761	0.068545	-66.689719
31.849718	0.004598	0.081262	0.081392	81.402699	40.129057	0.506605	82.901973	82.901973	82.901973	1.289884	1.070845	2.830000	0.078206	0.070522	-66.930118
32.308498	0.004731	0.082427	0.082562	81.530867	39.023582	0.499649	82.689526	82.689526	82.689526	1.282791	1.082160	2.830000	0.079706	0.072520	-67.146992
32.773887	0.004868	0.083608	0.083749	81.659116	37.966996	0.492793	82.475183	82.475183	82.475183	1.275998	1.093241	2.830000	0.081263	0.074538	-67.341789
33.245979	0.005009	0.084806	0.084954	81.787449	36.956140	0.486037	82.258881	82.258881	82.258881	1.269499	1.104086	2.830000	0.082877	0.076577	-67.515824
33.724872	0.005154	0.086021	0.086175	81.915868	35.988106	0.479378	82.040559	82.040559	82.040559	1.263289	1.114697	2.830000	0.084552	0.078637	-67.670288
34.210663	0.005304	0.087253	0.087414	82.044378	35.060222	0.472816	81.820153	81.820153	81.820153	1.257363	1.125075	2.830000	0.086288	0.080718	-67.806264
34.703452	0.005457	0.088502	0.088670	82.172980	34.170025	0.466349	81.597598	81.597598	81.597598	1.251718	1.135220	2.830000	0.088087	0.082821	-67.924737
35.203338	0.005615	0.089770	0.089945	82.301678	33.315242	0.459976	81.372829	81.372829	81.372829	1.246347	1.145134	2.830000	0.089951	0.084946	-68.026602
35.710426	0.005778	0.091055	0.091238	82.430474	32.493777	0.453696	81.145777	81.145777	81.145777	1.241248	1.154818	2.830000	0.091882	0.087094	-68.112677
36.224818	0.005945	0.092358	0.092549	82.559372	31.703689	0.447506	80.916374	80.916374	80.916374	1.236416	1.164275	2.830000	0.093881	0.089264	-68.183704
36.746619	0.006118	0.093680	0.093879	82.688375	30.943183	0.441407	80.684550	80.684550	80.684550	1.231848	1.173506	2.830000	0.095950	0.091458	-68.240362
37.275937	0.006295	0.095020	0.095228	82.817486	30.210596	0.435397	80.450232	80.450232	80.450232	1.227540	1.182514	2.830000	0.098093	0.093676	-68.283271
37.812880	0.006477	0.096379	0.096597	82.946707	29.504385	0.429475	80.213346	80.213346	80.213346	1.223488	1.191302	2.830000	0.100310	0.095918	-68.312994
38.357556	0.006664	0.097758	0.097985	83.076043	28.823115	0.423639	79.973818	79.973818	79.973818	1.219690	1.199873	2.830000	0.102604	0.098185	-68.330048
38.910079	0.006857	0.099156	0.099393	83.205497	28.165456	0.417888	79.731569	79.731569	79.731569	1.216143	1.208228	2.830000	0.104977	0.100478	-68.334901
39.470560	0.007056	0.100573	0.100821	83.335071	27.530167	0.412222	79.486522	79.486522	79.486522	1.212844	1.216372	2.830000	0.107432	0.102796	-68.327983
40.039115	0.007260	0.102011	0.102269	83.464769	26.916092	0.406638	79.238595	79.238595	79.238595	1.209790	1.224308	2.830000	0.109972	0.105142	-68.309683
40.615860	0.007470	0.103469	0.103738	83.594595	26.322153	0.401137	78.987706	78.987706	78.987706	1.206980	1.232038	2.830000	0.112598	0.107514	-68.280357
41.200912	0.007686	0.104947	0.105228	83.724551	25.747345	0.395716	78.733769	78.733769	78.733769	1.204411	1.239566	2.830000	0.115313	0.109914	-68.240329
41.794392	0.007909	0.106446	0.106739	83.854641	25.190728	0.390375	78.476697	78.476697	78.476697	1.202082	1.246897	2.830000	0.118121	0.112343	-68.189890
42.396421	0.008138	0.107966	0.108272	83.984869	24.651421	0.385113	78.216401	78.216401	78.216401	1.199990	1.254032	2.830000	0.121024	0.114801	-68.129306
43.007121	0.008373	0.109507	0.109827	84.115238	24.128603	0.379928	77.952790	77.952790	77.952790	1.198134	1.260977	2.830000	0.124026	0.117288	-68.058817
43.626619	0.008616	0.111070	0.111404	84.245751	23.621500	0.374819	77.685769	77.685769	77.685769	1.196513	1.267734	2.830000	0.127128	0.119806	-67.978639
44.255040	0.008865	0.112655	0.113003	84.376412	23.129390	0.369786	77.415242	77.415242	77.415242	1.195126	1.274307	2.830000	0.130335	0.122355	-67.888966
44.892513	0.009121	0.114262	0.114626	84.507225	22.651592	0.364828	77.141110	77.141110	77.141110	1.193972	1.280701	2.830000	0.133650	0.124936	-67.789968
45.539168	0.009385	0.115892	0.116271	84.638192	22.187469	0.359942	76.863270	76.863270	76.863270	1.193050	1.286917	2.830000	0.137076	0.127549	-67.681800
46.195138	0.009656	0.117544	0.117940	84.769318	21.736420	0.355129	76.581618	76.581618	76.581618	1.192360	1.292961	2.830000	0.140618	0.130196	-67.564595
46.860558	0.009936	0.119219	0.119632	84.900605	21.297880	0.350388	76.296047	76.296047	76.296047	1.191901	1.298837	2.830000	0.144278	0.132877	-67.438471
47.535562	0.010223	0.120918	0.121349	85.032058	20.871317	0.345717	76.006446	76.006446	76.006446	1.191673	1.304546	2.830000	0.148061	0.135593	-67.303528
48.220290	0.010519	0.122640	0.123090	85.163680	20.456229	0.341115	75.712701	75.712701	75.712701	1.191677	1.310095	2.830000	0.151971	0.138344	-67.159850
48.914880	0.010823	0.124386	0.124856	85.295474	20.052144	0.336581	75.414695	75.414695	75.414695	1.191912	1.315485	2.830000	0.156011	0.141132	-67.007509
49.619476	0.011136	0.126157	0.126647	85.427443	19.658615	0.332115	75.112306	75.112306	75.112306	1.192379	1.320720	2.830000	0.160187	0.143957	-66.846560
50.334221	0.011458	0.127952	0.128464	85.559591	19.275220	0.327716	74.805412	74.805412	74.805412	1.193079	1.325805	2.830000	0.164503	0.146821	-66.677044
51.059262	0.011789	0.129772	0.130306	85.691922	18.901560	0.323382	74.493884	74.493884	74.493884	1.194012	1.330743	2.830000	0.168963	0.149723	-66.498992
51.794747	0.012129	0.131617	0.132175	85.824438	18.537259	0.319113	74.177591	74.177591	74.177591	1.195179	1.335536	2.830000	0.173573	0.152666	-66.312421
52.540826	0.012480	0.133488	0.134070	85.957143	18.181959	0.314907	73.856396	73.856396	73.856396	1.196582	1.340190	2.830000	0.178337	0.155649	-66.117334
53.297652	0.012840	0.135384	0.135992	86.090039	17.835323	0.310764	73.530160	73.530160	73.530160	1.198222	1.344706	2.830000	0.183261	0.158674	-65.913725
54.065379	0.013211	0.137307	0.137941	86.223130	17.497031	0.306684	73.198739	73.198739	73.198739	1.200099	1.349088	2.830000	0.188351	0.161742	-65.701575
54.844166	0.013593	0.139256	0.139918	86.356419	17.166778	0.302664	72.861984	72.861984	72.861984	1.202217	1.353340	2.830000	0.193611	0.164853	-65.480855
55.634170	0.013986	0.141232	0.141923	86.489907	16.844278	0.298704	72.519741	72.519741	72.519741	1.204577	1.357465	2.830000	0.199047	0.168010	-65.251524
56.435554	0.014389	0.143235	0.143956	86.623599	16.529256	0.294804	72.171852	72.171852	72.171852	1.207181	1.361465	2.830000	0.204667	0.171212	-65.013532
57.248482	0.014805	0.145266	0.146019	86.757495	16.221455	0.290962	71.818154	71.818154	71.818154	1.210031	1.365344	2.830000	0.210476	0.174460	-64.766816
58.073119	0.015232	0.147325	0.148110	86.891599	15.920626	0.287177	71.458478	71.458478	71.458478	1.213129	1.369105	2.830000	0.216480	0.177757	-64.511304
58.909635	0.015672	0.149411	0.150231	87.025911	15.626536	0.283449	71.092650	71.092650	71.092650	1.216478	1.372751	2.830000	0.222686	0.181102	-64.246915
59.758201	0.016124	0.151527	0.152382	87.160435	15.338963	0.279777	70.720491	70.720491	70.720491	1.220082	1.376285	2.830000	0.229102	0.184497	-63.973557
60.618990	0.016589	0.153671	0.154563	87.295171	15.057695	0.276160	70.341814	70.341814	70.341814	1.223941	1.379709	2.830000	0.235735	0.187944	-63.691126
61.492178	0.017068	0.155844	0.156776	87.430120	14.782531	0.272597	69.956429	69.956429	69.956429	1.228061	1.383026	2.830000	0.242592	0.191442	-63.399510
62.377944	0.017560	0.158047	0.159019	87.565283	14.513280	0.269087	69.564137	69.564137	69.564137	1.232443	1.386240	2.830000	0.249680	0.194994	-63.098587
63.276469	0.018067	0.160279	0.161294	87.700661	14.249758	0.265629	69.164734	69.164734	69.164734	1.237091	1.389352	2.830000	0.257009	0.198600	-62.788224
64.187937	0.018588	0.162542	0.163602	87.836252	13.991793	0.262223	68.758008	68.758008	68.758008	1.242009	1.392364	2.830000	0.264586	0.202261	-62.468277
65.112534	0.019124	0.164836	0.165941	87.972058	13.739220	0.258868	68.343741	68.343741	68.343741	1.247199	1.395281	2.830000	0.272420	0.205980	-62.138595
66.050449	0.019675	0.167160	0.168314	88.108076	13.491881	0.255563	67.921708	67.921708	67.921708	1.252666	1.398103	2.830000	0.280519	0.209756	-61.799014
67.001875	0.020242	0.169516	0.170720	88.244304	13.249627	0.252306	67.491675	67.491675	67.491675	1.258414	1.400833	2.830000	0.288894	0.213591	-61.449360
67.967006	0.020825	0.171904	0.173161	88.380742	13.012315	0.249098	67.053401	67.053401	67.053401	1.264445	1.403474	2.830000	0.297553	0.217486	-61.089449
68.946038	0.021425	0.174323	0.175635	88.517385	12.779810	0.245937	66.606637	66.606637	66.606637	1.270765	1.406028	2.830000	0.306506	0.221443	-60.719087
69.939174	0.022042	0.176775	0.178144	88.654231	12.551982	0.242823	66.151126	66.151126	66.151126	1.277376	1.408496	2.830000	0.315763	0.225462	-60.338069
70.946615	0.022677	0.179260	0.180688	88.791273	12.328710	0.239754	65.686603	65.686603	65.686603	1.284283	1.410882	2.830000	0.325335	0.229546	-59.946178
71.968567	0.023330	0.181777	0.183268	88.928508	12.109875	0.236730	65.212792	65.212792	65.212792	1.291489	1.413186	2.830000	0.335232	0.233694	-59.543187
73.005241	0.024001	0.184329	0.185885	89.065929	11.895367	0.233750	64.729410	64.729410	64.729410	1.298999	1.415411	2.830000	0.345465	0.237908	-59.128859
74.056847	0.024692	0.186914	0.188538	89.203528	11.685080	0.230813	64.236164	64.236164	64.236164	1.306816	1.417559	2.830000	0.356046	0.242189	-58.702944
75.123601	0.025402	0.189533	0.191228	89.341296	11.478913	0.227918	63.732751	63.732751	63.732751	1.314944	1.419631	2.830000	0.366985	0.246539	-58.265181
76.205721	0.026133	0.192187	0.193955	89.479224	11.276773	0.225064	63.218859	63.218859	63.218859	1.323386	1.421630	2.830000	0.378295	0.250958	-57.815298
77.303429	0.026884	0.194875	0.196721	89.617301	11.078567	0.222251	62.694166	62.694166	62.694166	1.332147	1.423557	2.830000	0.389987	0.255448	-57.353012
78.416948	0.027657	0.197599	0.199525	89.755513	10.884212	0.219477	62.158338	62.158338	62.158338	1.341227	1.425413	2.830000	0.402073	0.260010	-56.878026
79.546508	0.028452	0.200359	0.202369	89.893848	10.693625	0.216741	61.611034	61.611034	61.611034	1.350632	1.427201	2.830000	0.414566	0.264644	-56.390034
80.692338	0.029269	0.203154	0.205252	90.032287	10.506731	0.214043	61.051900	61.051900	61.051900	1.360363	1.428921	2.830000	0.427479	0.269351	-55.888716
81.854673	0.030110	0.205986	0.208175	90.170815	10.323456	0.211382	60.480570	60.480570	60.480570	1.370422	1.430576	2.830000	0.440824	0.274133	-55.373739
83.033751	0.030975	0.208855	0.211139	90.309410	10.143734	0.208756	59.896671	59.896671	59.896671	1.380811	1.432166	2.830000	0.454613	0.278990	-54.844761
84.229813	0.031864	0.211761	0.214144	90.448050	9.967501	0.206165	59.299817	59.299817	59.299817	1.391531	1.433693	2.830000	0.468860	0.283923	-54.301426
85.443104	0.032778	0.214704	0.217191	90.586712	9.794696	0.203607	58.689610	58.689610	58.689610	1.402582	1.435159	2.830000	0.483577	0.288932	-53.743367
86.673872	0.033719	0.217684	0.220280	90.725367	9.625264	0.201082	58.065644	58.065644	58.065644	1.413965	1.436565	2.830000	0.498776	0.294018	-53.170203
87.922369	0.034685	0.220703	0.223412	90.863987	9.459153	0.198588	57.427499	57.427499	57.427499	1.425676	1.437911	2.830000	0.514471	0.299181	-52.581543
89.188849	0.035680	0.223760	0.226587	91.002538	9.296315	0.196124	56.774748	56.774748	56.774748	1.437715	1.439199	2.830000	0.530673	0.304422	-51.976985
90.473572	0.036702	0.226856	0.229806	91.140985	9.136705	0.193690	56.106951	56.106951	56.106951	1.450078	1.440431	2.830000	0.547395	0.309740	-51.356114
91.776802	0.037754	0.229991	0.233069	91.279288	8.980282	0.191284	55.423659	55.423659	55.423659	1.462760	1.441606	2.830000	0.564646	0.315135	-50.718504
93.098803	0.038835	0.233166	0.236378	91.417404	8.827010	0.188904	54.724413	54.724413	54.724413	1.475756	1.442727	2.830000	0.582439	0.320607	-50.063722
94.439848	0.039946	0.236380	0.239732	91.555287	8.676854	0.186551	54.008747	54.008747	54.008747	1.489058	1.443795	2.830000	0.600783	0.326155	-49.391321
95.800210	0.041089	0.239634	0.243132	91.692885	8.529786	0.184221	53.276185	53.276185	53.276185	1.502656	1.444809	2.830000	0.619687	0.331779	-48.700848
97.180167	0.042265	0.242929	0.246578	91.830143	8.385778	0.181914	52.526244	52.526244	52.526244	1.516539	1.445771	2.830000	0.639159	0.337476	-47.991840
98.580001	0.043473	0.246264	0.250072	91.967001	8.244807	0.179629	51.758434	51.758434	51.758434	1.530694	1.446682	2.830000	0.659206	0.343246	-47.263829
100.000000	0.044715	0.249641	0.253614	92.103393	8.106855	0.177365	50.972262	50.972262	50.972262	1.545105	1.447543	2.830000	0.679833	0.349087	-46.516338
101.440453	0.045993	0.253058	0.257204	92.239249	7.971905	0.175119	50.167231	50.167231	50.167231	1.559754	1.448355	2.830000	0.701043	0.354997	-45.748890
102.901655	0.047306	0.256517	0.260843	92.374494	7.839945	0.172891	49.342839	49.342839	49.342839	1.574619	1.449117	2.830000	0.722837	0.360972	-44.961002
104.383905	0.048656	0.260018	0.264531	92.509044	7.710965	0.170678	48.498587	48.498587	48.498587	1.589677	1.449831	2.830000	0.745214	0.367010	-44.152191
105.887506	0.050044	0.263561	0.268270	92.642811	7.584960	0.168480	47.633977	47.633977	47.633977	1.604900	1.450498	2.830000	0.768172	0.373107	-43.321976
107.412766	0.051471	0.267146	0.272059	92.775701	7.461928	0.166294	46.748516	46.748516	46.748516	1.620256	1.451118	2.830000	0.791702	0.379259	-42.469881
108.959997	0.052937	0.270773	0.275900	92.907612	7.341870	0.164119	45.841718	45.841718	45.841718	1.635711	1.451691	2.830000	0.815795	0.385460	-41.595434
110.529514	0.054445	0.274444	0.279792	93.038434	7.224790	0.161954	44.913106	44.913106	44.913106	1.651226	1.452219	2.830000	0.840438	0.391707	-40.698175
112.121640	0.055995	0.278157	0.283737	93.168051	7.110696	0.159796	43.962219	43.962219	43.962219	1.666757	1.452701	2.830000	0.865612	0.397992	-39.777656
113.736699	0.057588	0.281914	0.287735	93.296340	6.999600	0.157644	42.988612	42.988612	42.988612	1.682255	1.453138	2.830000	0.891295	0.404309	-38.833446
115.375023	0.059225	0.285714	0.291787	93.423167	6.891516	0.155497	41.991861	41.991861	41.991861	1.697670	1.453530	2.830000	0.917460	0.410650	-37.865137
117.036946	0.060908	0.289557	0.295894	93.548394	6.786460	0.153351	40.971571	40.971571	40.971571	1.712941	1.453879	2.830000	0.944073	0.417007	-36.872345
118.722808	0.062637	0.293444	0.300055	93.671872	6.684455	0.151206	39.927374	39.927374	39.927374	1.728006	1.454183	2.830000	0.971097	0.423370	-35.854716
120.432955	0.064415	0.297375	0.304271	93.793443	6.585524	0.149059	38.858942	38.858942	38.858942	1.742798	1.454444	2.830000	0.998485	0.429730	-34.811934
122.167735	0.066242	0.301350	0.308544	93.912944	6.489692	0.146910	37.765988	37.765988	37.765988	1.757241	1.454661	2.830000	1.026188	0.436076	-33.743723
123.927504	0.068119	0.305368	0.312874	94.030201	6.396991	0.144755	36.648271	36.648271	36.648271	1.771256	1.454835	2.830000	1.054146	0.442395	-32.649857
125.712621	0.070049	0.309431	0.317261	94.145032	6.307452	0.142593	35.505608	35.505608	35.505608	1.784760	1.454967	2.830000	1.082292	0.448676	-31.530161
127.523453	0.072031	0.313538	0.321706	94.257249	6.221109	0.140423	34.337873	34.337873	34.337873	1.797662	1.455055	2.830000	1.110555	0.454903	-30.384522
129.360368	0.074069	0.317689	0.326209	94.366656	6.137999	0.138242	33.145011	33.145011	33.145011	1.809868	1.455101	2.830000	1.138851	0.461062	-29.212894
131.223743	0.076162	0.321885	0.330772	94.473047	6.058163	0.136050	31.927040	31.927040	31.927040	1.821279	1.455104	2.830000	1.167092	0.467138	-28.015308
133.113960	0.078313	0.326124	0.335395	94.576215	5.981640	0.133844	30.684060	30.684060	30.684060	1.831793	1.455064	2.830000	1.195181	0.473114	-26.791871
135.031404	0.080522	0.330407	0.340078	94.675942	5.908474	0.131623	29.416259	29.416259	29.416259	1.841303	1.454982	2.830000	1.223013	0.478973	-25.542783
136.976468	0.082792	0.334735	0.344822	94.772010	5.838707	0.129386	28.123920	28.123920	28.123920	1.849702	1.454857	2.830000	1.250475	0.484696	-24.268337
138.949549	0.085125	0.339106	0.349627	94.864194	5.772386	0.127131	26.807428	26.807428	26.807428	1.856879	1.454689	2.830000	1.277449	0.490265	-22.968927
140.951052	0.087520	0.343522	0.354495	94.952268	5.709556	0.124858	25.467276	25.467276	25.467276	1.862725	1.454479	2.830000	1.303808	0.495660	-21.645053
142.981386	0.089981	0.347980	0.359426	95.036005	5.650263	0.122566	24.104067	24.104067	24.104067	1.867131	1.454226	2.830000	1.329423	0.500862	-20.297331
145.040966	0.092509	0.352483	0.364420	95.115180	5.594551	0.120255	22.718524	22.718524	22.718524	1.869989	1.453929	2.830000	1.354157	0.505849	-18.926489
147.130213	0.095106	0.357028	0.369478	95.189566	5.542468	0.117923	21.311488	21.311488	21.311488	1.871199	1.453589	2.830000	1.377873	0.510603	-17.533379
149.249555	0.097772	0.361616	0.374601	95.258945	5.494056	0.115572	19.883923	19.883923	19.883923	1.870662	1.453205	2.830000	1.400431	0.515102	-16.118973
151.399424	0.100511	0.366247	0.379789	95.323101	5.449359	0.113201	18.436917	18.436917	18.436917	1.868290	1.452778	2.830000	1.421691	0.519327	-14.684366
153.580262	0.103324	0.370920	0.385042	95.381829	5.408418	0.110811	16.971679	16.971679	16.971679	1.864001	1.452306	2.830000	1.441514	0.523258	-13.230776
155.792513	0.106212	0.375635	0.390362	95.434931	5.371271	0.108403	15.489539	15.489539	15.489539	1.857725	1.451790	2.830000	1.459767	0.526877	-11.759541
158.036631	0.109177	0.380391	0.395748	95.482224	5.337953	0.105978	13.991944	13.991944	13.991944	1.849406	1.451229	2.830000	1.476321	0.530166	-10.272116
160.313075	0.112222	0.385188	0.401202	95.523535	5.308499	0.103537	12.480451	12.480451	12.480451	1.838998	1.450622	2.830000	1.491055	0.533107	-8.770064
162.622309	0.115348	0.390025	0.406724	95.558712	5.282935	0.101083	10.956718	10.956718	10.956718	1.826473	1.449970	2.830000	1.503857	0.535687	-7.255053
164.964807	0.118557	0.394902	0.412314	95.587615	5.261288	0.098617	9.422498	9.422498	9.422498	1.811818	1.449271	2.830000	1.514629	0.537891	-5.728843
167.341048	0.121852	0.399818	0.417974	95.610128	5.243577	0.096142	7.879628	7.879628	7.879628	1.795037	1.448525	2.830000	1.523285	0.539708	-4.193276
169.751517	0.125233	0.404772	0.423702	95.626154	5.229819	0.093661	6.330012	6.330012	6.330012	1.776154	1.447732	2.830000	1.529753	0.541128	-2.650267
172.196708	0.128704	0.409764	0.429501	95.635616	5.220025	0.091177	4.775611	4.775611	4.775611	1.755206	1.446891	2.830000	1.533981	0.542143	-1.101782
174.677121	0.132266	0.414792	0.435370	95.638462	5.214199	0.088693	3.218429	3.218429	3.218429	1.732251	1.446001	2.830000	1.535932	0.542749	0.450168
177.193263	0.135922	0.419856	0.441309	95.634665	5.212343	0.086212	1.660491	1.660491	1.660491	1.707364	1.445062	2.830000	1.535587	0.542942	2.003548
179.745648	0.139673	0.424955	0.447320	95.624218	5.214452	0.083738	0.103836	0.103836	0.103836	1.680635	1.444073	2.830000	1.532947	0.542722	3.556315
182.334800	0.143523	0.430088	0.453403	95.607142	5.220515	0.081274	-1.449508	-1.449508	-1.449508	1.652170	1.443033	2.830000	1.528032	0.542092	5.106433
184.961247	0.147472	0.435253	0.459558	95.583479	5.230517	0.078825	-2.997535	-2.997535	-2.997535	1.622086	1.441941	2.830000	1.520879	0.541055	6.651888
187.625527	0.151523	0.440450	0.465785	95.553294	5.244438	0.076394	-4.538280	-4.538280	-4.538280	1.590514	1.440797	2.830000	1.511545	0.539619	8.190709
190.328185	0.155679	0.445677	0.472085	95.516675	5.262251	0.073985	-6.069833	-6.069833	-6.069833	1.557595	1.439599	2.830000	1.500101	0.537793	9.720977
193.069773	0.159942	0.450933	0.478458	95.473731	5.283926	0.071601	-7.590350	-7.590350	-7.590350	1.523476	1.438347	2.830000	1.486633	0.535587	11.240842
195.850852	0.164313	0.456216	0.484904	95.424589	5.309429	0.069246	-9.098072	-9.098072	-9.098072	1.488310	1.437039	2.830000	1.471244	0.533014	12.748537
198.671992	0.168797	0.461525	0.491425	95.369396	5.338720	0.066923	-10.591330	-10.591330	-10.591330	1.452253	1.435676	2.830000	1.454044	0.530090	14.242387
201.533769	0.173394	0.466859	0.498019	95.308313	5.371756	0.064636	-12.068559	-12.068559	-12.068559	1.415463	1.434255	2.830000	1.435157	0.526830	15.720818
204.436768	0.178107	0.472215	0.504687	95.241517	5.408492	0.062388	-13.528302	-13.528302	-13.528302	1.378096	1.432775	2.830000	1.414712	0.523251	17.182366
207.381584	0.182940	0.477592	0.511430	95.169194	5.448878	0.060181	-14.969220	-14.969220	-14.969220	1.340306	1.431236	2.830000	1.392844	0.519373	18.625685
210.368818	0.187893	0.482987	0.518247	95.091542	5.492864	0.058019	-16.390093	-16.390093	-16.390093	1.302241	1.429637	2.830000	1.369692	0.515214	20.049545
213.399082	0.192969	0.488399	0.525139	95.008769	5.540394	0.055902	-17.789824	-17.789824	-17.789824	1.264045	1.427975	2.830000	1.345398	0.510794	21.452844
216.472995	0.198172	0.493826	0.532106	94.921085	5.591415	0.053834	-19.167438	-19.167438	-19.167438	1.225852	1.426250	2.830000	1.320101	0.506133	22.834597
219.591187	0.203503	0.499266	0.539147	94.828707	5.645869	0.051816	-20.522086	-20.522086	-20.522086	1.187791	1.424460	2.830000	1.293942	0.501251	24.193947
222.754295	0.208966	0.504715	0.546264	94.731853	5.703700	0.049849	-21.853036	-21.853036	-21.853036	1.149978	1.422605	2.830000	1.267055	0.496169	25.530155
225.962966	0.214561	0.510172	0.553455	94.630742	5.764850	0.047935	-23.159677	-23.159677	-23.159677	1.112523	1.420682	2.830000	1.239572	0.490906	26.842600
229.217857	0.220293	0.515634	0.560721	94.525592	5.829261	0.046074	-24.441509	-24.441509	-24.441509	1.075523	1.418691	2.830000	1.211618	0.485482	28.130774
232.519632	0.226163	0.521098	0.568061	94.416619	5.896876	0.044268	-25.698141	-25.698141	-25.698141	1.039066	1.416629	2.830000	1.183314	0.479915	29.394276
235.868968	0.232174	0.526562	0.575475	94.304034	5.967639	0.042516	-26.929285	-26.929285	-26.929285	1.003231	1.414495	2.830000	1.154772	0.474224	30.632809
239.266550	0.238328	0.532022	0.582964	94.188045	6.041493	0.040819	-28.134748	-28.134748	-28.134748	0.968085	1.412288	2.830000	1.126096	0.468427	31.846170
242.713072	0.244628	0.537475	0.590527	94.068854	6.118386	0.039176	-29.314426	-29.314426	-29.314426	0.933686	1.410006	2.830000	1.097384	0.462540	33.034247
246.209240	0.251076	0.542918	0.598163	93.946656	6.198263	0.037588	-30.468300	-30.468300	-30.468300	0.900084	1.407647	2.830000	1.068725	0.456580	34.197010
249.755769	0.257675	0.548347	0.605872	93.821638	6.281074	0.036054	-31.596425	-31.596425	-31.596425	0.867319	1.405210	2.830000	1.040201	0.450560	35.334503
253.353383	0.264427	0.553759	0.613653	93.693983	6.366768	0.034574	-32.698925	-32.698925	-32.698925	0.835422	1.402692	2.830000	1.011883	0.444496	36.446840
257.002820	0.271334	0.559150	0.621507	93.563861	6.455300	0.033146	-33.775986	-33.775986	-33.775986	0.804418	1.400092	2.830000	0.983839	0.438399	37.534195
260.704825	0.278399	0.564516	0.629432	93.431438	6.546624	0.031770	-34.827850	-34.827850	-34.827850	0.774326	1.397407	2.830000	0.956126	0.432284	38.596799
264.460155	0.285624	0.569854	0.637428	93.296869	6.640696	0.030445	-35.854807	-35.854807	-35.854807	0.745156	1.394637	2.830000	0.928796	0.426160	39.634930
268.269580	0.293011	0.575158	0.645494	93.160301	6.737476	0.029169	-36.857191	-36.857191	-36.857191	0.716915	1.391778	2.830000	0.901892	0.420039	40.648911
272.133877	0.300563	0.580424	0.653628	93.021873	6.836926	0.027943	-37.835374	-37.835374	-37.835374	0.689602	1.388829	2.830000	0.875453	0.413929	41.639099
276.053838	0.308281	0.585648	0.661831	92.881716	6.939010	0.026764	-38.789758	-38.789758	-38.789758	0.663214	1.385787	2.830000	0.849512	0.407839	42.605886
280.030263	0.316167	0.590825	0.670102	92.739951	7.043695	0.025631	-39.720775	-39.720775	-39.720775	0.637743	1.382651	2.830000	0.824094	0.401778	43.549686
284.063968	0.324224	0.595950	0.678438	92.596692	7.150949	0.024543	-40.628876	-40.628876	-40.628876	0.613179	1.379418	2.830000	0.799222	0.395752	44.470941
288.155776	0.332452	0.601018	0.686839	92.452044	7.260744	0.023498	-41.514534	-41.514534	-41.514534	0.589506	1.376086	2.830000	0.774913	0.389767	45.370105
292.306525	0.340855	0.606023	0.695303	92.306105	7.373054	0.022496	-42.378235	-42.378235	-42.378235	0.566710	1.372652	2.830000	0.751181	0.383830	46.247651
296.517063	0.349433	0.610960	0.703830	92.158967	7.487856	0.021535	-43.220475	-43.220475	-43.220475	0.544770	1.369114	2.830000	0.728033	0.377945	47.104061
300.788252	0.358189	0.615824	0.712417	92.010711	7.605128	0.020613	-44.041761	-44.041761	-44.041761	0.523668	1.365470	2.830000	0.705478	0.372117	47.939822
305.120965	0.367122	0.620607	0.721063	91.861415	7.724851	0.019730	-44.842603	-44.842603	-44.842603	0.503382	1.361717	2.830000	0.683517	0.366350	48.755429
309.516090	0.376235	0.625305	0.729766	91.711147	7.847008	0.018883	-45.623515	-45.623515	-45.623515	0.483889	1.357851	2.830000	0.662151	0.360647	49.551379
313.974523	0.385529	0.629910	0.738525	91.559971	7.971586	0.018072	-46.385011	-46.385011	-46.385011	0.465166	1.353872	2.830000	0.641378	0.355011	50.328167
318.497179	0.395004	0.634416	0.747337	91.407944	8.098573	0.017295	-47.127604	-47.127604	-47.127604	0.447189	1.349775	2.830000	0.621194	0.349444	51.086288
323.084981	0.404662	0.638817	0.756200	91.255118	8.227957	0.016551	-47.851806	-47.851806	-47.851806	0.429935	1.345559	2.830000	0.601594	0.343949	51.826233
327.738869	0.414502	0.643105	0.765111	91.101538	8.359732	0.015838	-48.558121	-48.558121	-48.558121	0.413379	1.341220	2.830000	0.582570	0.338528	52.548488
332.459793	0.424526	0.647273	0.774070	90.947245	8.493892	0.015156	-49.247052	-49.247052	-49.247052	0.397498	1.336755	2.830000	0.564114	0.333181	53.253532
337.248720	0.434732	0.651314	0.783072	90.792276	8.630433	0.014504	-49.919091	-49.919091	-49.919091	0.382267	1.332161	2.830000	0.546217	0.327909	53.941839
342.106630	0.445122	0.655220	0.792116	90.636661	8.769353	0.013879	-50.574727	-50.574727	-50.574727	0.367662	1.327436	2.830000	0.528867	0.322715	54.613872
347.034515	0.455694	0.658984	0.801197	90.480426	8.910653	0.013281	-51.214437	-51.214437	-51.214437	0.353661	1.322577	2.830000	0.512054	0.317597	55.270088
352.033384	0.466448	0.662598	0.810314	90.323596	9.054333	0.012709	-51.838693	-51.838693	-51.838693	0.340240	1.317579	2.830000	0.495767	0.312558	55.910932
357.104260	0.477383	0.666053	0.819464	90.166187	9.200398	0.012162	-52.447955	-52.447955	-52.447955	0.327378	1.312440	2.830000	0.479991	0.307595	56.536841
362.248179	0.488498	0.669341	0.828642	90.008216	9.348854	0.011639	-53.042675	-53.042675	-53.042675	0.315052	1.307157	2.830000	0.464716	0.302711	57.148240
367.466194	0.499790	0.672453	0.837845	89.849693	9.499707	0.011138	-53.623296	-53.623296	-53.623296	0.303241	1.301727	2.830000	0.449929	0.297904	57.745545
372.759372	0.511259	0.675381	0.847069	89.690627	9.652966	0.010659	-54.190250	-54.190250	-54.190250	0.291924	1.296145	2.830000	0.435615	0.293174	58.329161
378.128796	0.522902	0.678116	0.856311	89.531022	9.808642	0.010201	-54.743958	-54.743958	-54.743958	0.281082	1.290410	2.830000	0.421763	0.288521	58.899481
383.575563	0.534716	0.680649	0.865566	89.370880	9.966746	0.009762	-55.284834	-55.284834	-55.284834	0.270696	1.284517	2.830000	0.408359	0.283944	59.456888
389.100789	0.546699	0.682970	0.874830	89.210201	10.127292	0.009343	-55.813280	-55.813280	-55.813280	0.260746	1.278462	2.830000	0.395391	0.279443	60.001754
394.705603	0.558846	0.685071	0.884099	89.048980	10.290294	0.008942	-56.329688	-56.329688	-56.329688	0.251215	1.272243	2.830000	0.382844	0.275016	60.534441
400.391152	0.571153	0.686941	0.893367	88.887211	10.455769	0.008559	-56.834441	-56.834441	-56.834441	0.242085	1.265856	2.830000	0.370707	0.270664	61.055298
406.158599	0.583617	0.688572	0.902630	88.724886	10.623734	0.008192	-57.327913	-57.327913	-57.327913	0.233340	1.259297	2.830000	0.358967	0.266385	61.564665
412.009123	0.596233	0.689953	0.911882	88.561992	10.794209	0.007842	-57.810466	-57.810466	-57.810466	0.224964	1.252563	2.830000	0.347611	0.262178	62.062871
417.943921	0.608995	0.691075	0.921119	88.398518	10.967213	0.007506	-58.282456	-58.282456	-58.282456	0.216942	1.245651	2.830000	0.336628	0.258042	62.550236
423.964207	0.621896	0.691928	0.930333	88.234447	11.142768	0.007186	-58.744227	-58.744227	-58.744227	0.209257	1.238555	2.830000	0.326005	0.253976	63.027067
430.071212	0.634932	0.692502	0.939520	88.069762	11.320897	0.006879	-59.196117	-59.196117	-59.196117	0.201898	1.231274	2.830000	0.315730	0.249980	63.493664
436.266186	0.648095	0.692787	0.948673	87.904442	11.501624	0.006585	-59.638452	-59.638452	-59.638452	0.194849	1.223803	2.830000	0.305793	0.246052	63.950317
442.550395	0.661377	0.692773	0.957786	87.738467	11.684973	0.006305	-60.071552	-60.071552	-60.071552	0.188098	1.216139	2.830000	0.296181	0.242191	64.397304
448.925126	0.674770	0.692451	0.966852	87.571813	11.870972	0.006036	-60.495728	-60.495728	-60.495728	0.181632	1.208279	2.830000	0.286885	0.238397	64.834896
455.391681	0.688265	0.691811	0.975864	87.404455	12.059648	0.005779	-60.911283	-60.911283	-60.911283	0.175440	1.200218	2.830000	0.277894	0.234667	65.263356
461.951385	0.701853	0.690842	0.984815	87.236365	12.251029	0.005534	-61.318513	-61.318513	-61.318513	0.169509	1.191953	2.830000	0.269198	0.231001	65.682935
468.605578	0.715523	0.689536	0.993697	87.067515	12.445146	0.005299	-61.717706	-61.717706	-61.717706	0.163830	1.183482	2.830000	0.260786	0.227398	66.093880
475.355621	0.729266	0.687883	1.002502	86.897875	12.642028	0.005074	-62.109142	-62.109142	-62.109142	0.158390	1.174799	2.830000	0.252649	0.223856	66.496425
482.202895	0.743069	0.685873	1.011223	86.727411	12.841708	0.004859	-62.493095	-62.493095	-62.493095	0.153181	1.165903	2.830000	0.244778	0.220376	66.890799
489.148802	0.756920	0.683498	1.019852	86.556092	13.044218	0.004653	-62.869832	-62.869832	-62.869832	0.148193	1.156790	2.830000	0.237164	0.216954	67.277224
496.194760	0.770806	0.680750	1.028378	86.383880	13.249593	0.004457	-63.239613	-63.239613	-63.239613	0.143416	1.147457	2.830000	0.229798	0.213591	67.655912
503.342213	0.784714	0.677619	1.036795	86.210740	13.457867	0.004268	-63.602691	-63.602691	-63.602691	0.138841	1.137901	2.830000	0.222671	0.210286	68.027070
510.592621	0.798629	0.674098	1.045091	86.036633	13.669077	0.004088	-63.959315	-63.959315	-63.959315	0.134460	1.128119	2.830000	0.215776	0.207037	68.390897
517.947468	0.812536	0.670179	1.053259	85.861518	13.883259	0.003916	-64.309724	-64.309724	-64.309724	0.130265	1.118108	2.830000	0.209104	0.203843	68.747585
525.408258	0.826418	0.665856	1.061288	85.685356	14.100452	0.003751	-64.654155	-64.654155	-64.654155	0.126248	1.107867	2.830000	0.202648	0.200703	69.097321
532.976517	0.840261	0.661121	1.069167	85.508101	14.320694	0.003593	-64.992836	-64.992836	-64.992836	0.122401	1.097392	2.830000	0.196401	0.197616	69.440284
540.653794	0.854045	0.655969	1.076888	85.329711	14.544024	0.003442	-65.325992	-65.325992	-65.325992	0.118718	1.086681	2.830000	0.190355	0.194582	69.776648
548.441658	0.867752	0.650395	1.084439	85.150140	14.770485	0.003297	-65.653841	-65.653841	-65.653841	0.115190	1.075733	2.830000	0.184503	0.191598	70.106581
556.341702	0.881364	0.644393	1.091809	84.969339	15.000118	0.003158	-65.976594	-65.976594	-65.976594	0.111812	1.064546	2.830000	0.178840	0.188665	70.430245
564.355543	0.894862	0.637962	1.098987	84.787261	15.232965	0.003026	-66.294459	-66.294459	-66.294459	0.108577	1.053119	2.830000	0.173358	0.185781	70.747797
572.484820	0.908223	0.631096	1.105962	84.603855	15.469070	0.002899	-66.607637	-66.607637	-66.607637	0.105479	1.041451	2.830000	0.168051	0.182946	71.059389
580.731195	0.921428	0.623796	1.112722	84.419070	15.708478	0.002778	-66.916325	-66.916325	-66.916325	0.102511	1.029541	2.830000	0.162914	0.180157	71.365167
589.096355	0.934455	0.616059	1.119256	84.232854	15.951235	0.002661	-67.220712	-67.220712	-67.220712	0.099669	1.017389	2.830000	0.157940	0.177416	71.665273
597.582011	0.947280	0.607887	1.125551	84.045151	16.197387	0.002550	-67.520985	-67.520985	-67.520985	0.096946	1.004994	2.830000	0.153125	0.174720	71.959844
606.189899	0.959882	0.599279	1.131596	83.855908	16.446981	0.002443	-67.817322	-67.817322	-67.817322	0.094336	0.992358	2.830000	0.148462	0.172068	72.249012
614.921780	0.972236	0.590240	1.137377	83.665068	16.700066	0.002341	-68.109899	-68.109899	-68.109899	0.091836	0.979482	2.830000	0.143948	0.169460	72.532905
623.779440	0.984318	0.580773	1.142882	83.472572	16.956692	0.002244	-68.398883	-68.398883	-68.398883	0.089439	0.966367	2.830000	0.139576	0.166896	72.811648
632.764690	0.996104	0.570883	1.148099	83.278363	17.216907	0.002150	-68.684438	-68.684438	-68.684438	0.087140	0.953015	2.830000	0.135342	0.164373	73.085359
641.879368	1.007569	0.560577	1.153015	83.082382	17.480765	0.002060	-68.966720	-68.966720	-68.966720	0.084936	0.939428	2.830000	0.131241	0.161892	73.354155
651.125339	1.018688	0.549864	1.157617	82.884566	17.748317	0.001975	-69.245881	-69.245881	-69.245881	0.082821	0.925611	2.830000	0.127269	0.159452	73.618149
660.504493	1.029435	0.538753	1.161892	82.684857	18.019615	0.001892	-69.522067	-69.522067	-69.522067	0.080791	0.911566	2.830000	0.123422	0.157051	73.877447
670.018750	1.039785	0.527257	1.165827	82.483191	18.294715	0.001814	-69.795416	-69.795416	-69.795416	0.078841	0.897298	2.830000	0.119695	0.154689	74.132155
679.670056	1.049712	0.515388	1.169410	82.279506	18.573670	0.001738	-70.066060	-70.066060	-70.066060	0.076967	0.882813	2.830000	0.116085	0.152366	74.382376
689.460384	1.059191	0.503162	1.172628	82.073739	18.856537	0.001666	-70.334126	-70.334126	-70.334126	0.075164	0.868116	2.830000	0.112588	0.150081	74.628206
699.391737	1.068196	0.490596	1.175469	81.865828	19.143373	0.001597	-70.599733	-70.599733	-70.599733	0.073430	0.853215	2.830000	0.109199	0.147832	74.869741
709.466146	1.076703	0.477709	1.177920	81.655710	19.434234	0.001530	-70.862993	-70.862993	-70.862993	0.071760	0.838116	2.830000	0.105916	0.145619	75.107074
719.685673	1.084688	0.464523	1.179970	81.443322	19.729181	0.001467	-71.124011	-71.124011	-71.124011	0.070149	0.822828	2.830000	0.102735	0.143442	75.340292
730.052407	1.092126	0.451061	1.181607	81.228603	20.028272	0.001406	-71.382884	-71.382884	-71.382884	0.068595	0.807360	2.830000	0.099652	0.141300	75.569484
740.568469	1.098994	0.437347	1.182819	81.011490	20.331568	0.001347	-71.639703	-71.639703	-71.639703	0.067093	0.791722	2.830000	0.096665	0.139192	75.794731
751.236010	1.105271	0.423410	1.183596	80.791924	20.639131	0.001291	-71.894548	-71.894548	-71.894548	0.065640	0.775926	2.830000	0.093771	0.137118	76.016116
762.057212	1.110936	0.409278	1.183929	80.569846	20.951022	0.001238	-72.147494	-72.147494	-72.147494	0.064232	0.759983	2.830000	0.090965	0.135077	76.233716
773.034288	1.115970	0.394984	1.183808	80.345200	21.267306	0.001186	-72.398604	-72.398604	-72.398604	0.062866	0.743906	2.830000	0.088246	0.133068	76.447608
784.169484	1.120354	0.380561	1.183224	80.117931	21.588046	0.001137	-72.647936	-72.647936	-72.647936	0.061539	0.727708	2.830000	0.085611	0.131091	76.657866
795.465078	1.124073	0.366044	1.182171	79.887988	21.913308	0.001090	-72.895537	-72.895537	-72.895537	0.060248	0.711406	2.830000	0.083057	0.129145	76.864561
806.923378	1.127111	0.351471	1.180641	79.655324	22.243157	0.001044	-73.141444	-73.141444	-73.141444	0.058988	0.695013	2.830000	0.080581	0.127230	77.067762
818.546731	1.129459	0.336883	1.178629	79.419893	22.577662	0.001001	-73.385686	-73.385686	-73.385686	0.057759	0.678548	2.830000	0.078181	0.125345	77.267537
830.337512	1.131104	0.322319	1.176132	79.181657	22.916889	0.000959	-73.628283	-73.628283	-73.628283	0.056555	0.662026	2.830000	0.075855	0.123490	77.463950
842.298134	1.132042	0.307824	1.173147	78.940581	23.260908	0.000920	-73.869244	-73.869244	-73.869244	0.055375	0.645468	2.830000	0.073600	0.121663	77.657067
854.431043	1.132267	0.293442	1.169674	78.696640	23.609789	0.000881	-74.108569	-74.108569	-74.108569	0.054216	0.628892	2.830000	0.071414	0.119866	77.846947
866.738721	1.131779	0.279219	1.165713	78.449810	23.963602	0.000845	-74.346246	-74.346246	-74.346246	0.053075	0.612319	2.830000	0.069294	0.118096	78.033652
879.223685	1.130581	0.265202	1.161268	78.200082	24.322419	0.000809	-74.582257	-74.582257	-74.582257	0.051950	0.595768	2.830000	0.067240	0.116354	78.217239
891.888489	1.128677	0.251439	1.156345	77.947450	24.686313	0.000776	-74.816570	-74.816570	-74.816570	0.050839	0.579263	2.830000	0.065247	0.114638	78.397765
904.735724	1.126077	0.237981	1.150949	77.691921	25.055358	0.000743	-75.049147	-75.049147	-75.049147	0.049739	0.562825	2.830000	0.063316	0.112950	78.575285
917.768017	1.122795	0.224875	1.145093	77.433513	25.429628	0.000712	-75.279936	-75.279936	-75.279936	0.048649	0.546477	2.830000	0.061443	0.111288	78.749853
930.988035	1.118849	0.212172	1.138789	77.172256	25.809198	0.000683	-75.508880	-75.508880	-75.508880	0.047566	0.530241	2.830000	0.059627	0.109651	78.921522
944.398480	1.114260	0.199921	1.132053	76.908195	26.194146	0.000654	-75.735910	-75.735910	-75.735910	0.046489	0.514143	2.830000	0.057867	0.108039	79.090343
958.002097	1.109055	0.188172	1.124905	76.641387	26.584548	0.000627	-75.960948	-75.960948	-75.960948	0.045417	0.498206	2.830000	0.056160	0.106453	79.256366
971.801667	1.103264	0.176971	1.117368	76.371908	26.980483	0.000601	-76.183910	-76.183910	-76.183910	0.044348	0.482453	2.830000	0.054504	0.104891	79.419639
985.800014	1.096923	0.166366	1.109467	76.099850	27.382030	0.000575	-76.404703	-76.404703	-76.404703	0.043281	0.466909	2.830000	0.052899	0.103352	79.580211
1000.000000	1.090071	0.156401	1.101234	75.825325	27.789270	0.000551	-76.623225	-76.623225	-76.623225	0.042215	0.451598	2.830000	0.051342	0.101838	79.738128
1014.404530	1.082754	0.147119	1.092703	75.548466	28.202284	0.000528	-76.839370	-76.839370	-76.839370	0.041150	0.436542	2.830000	0.049833	0.100346	79.893437
1029.016551	1.075019	0.138560	1.083912	75.269425	28.621154	0.000506	-77.053026	-77.053026	-77.053026	0.040085	0.421765	2.830000	0.048369	0.098878	80.046182
1043.839051	1.066922	0.130759	1.074905	74.988379	29.045964	0.000485	-77.264075	-77.264075	-77.264075	0.039020	0.407290	2.830000	0.046949	0.097432	80.196407
1058.875063	1.058520	0.123750	1.065729	74.705528	29.476797	0.000465	-77.472396	-77.472396	-77.472396	0.037954	0.393138	2.830000	0.045572	0.096008	80.344157
1074.127661	1.049874	0.117561	1.056436	74.421095	29.913741	0.000445	-77.677866	-77.677866	-77.677866	0.036888	0.379329	2.830000	0.044237	0.094605	80.489473
1089.599965	1.041052	0.112215	1.047082	74.135331	30.356880	0.000426	-77.880359	-77.880359	-77.880359	0.035823	0.365883	2.830000	0.042942	0.093224	80.632398
1105.295141	1.032122	0.107729	1.037729	73.848508	30.806303	0.000408	-78.079751	-78.079751	-78.079751	0.034758	0.352819	2.830000	0.041686	0.091864	80.772973
1121.216399	1.023157	0.104115	1.028441	73.560926	31.262098	0.000391	-78.275917	-78.275917	-78.275917	0.033695	0.340152	2.830000	0.040468	0.090525	80.911240
1137.366994	1.014232	0.101379	1.019287	73.272905	31.724355	0.000375	-78.468736	-78.468736	-78.468736	0.032635	0.327898	2.830000	0.039287	0.089206	81.047238
1153.750232	1.005425	0.099520	1.010338	72.984792	32.193166	0.000359	-78.658091	-78.658091	-78.658091	0.031579	0.316071	2.830000	0.038141	0.087907	81.181008
1170.369462	0.996813	0.098526	1.001671	72.696950	32.668623	0.000344	-78.843870	-78.843870	-78.843870	0.030528	0.304681	2.830000	0.037029	0.086627	81.312588
1187.228084	0.988477	0.098383	0.993361	72.409761	33.150819	0.000329	-79.025968	-79.025968	-79.025968	0.029484	0.293737	2.830000	0.035951	0.085367	81.442019
1204.329547	0.980495	0.099064	0.985487	72.123618	33.639848	0.000315	-79.204290	-79.204290	-79.204290	0.028449	0.283248	2.830000	0.034905	0.084126	81.569337
1221.677349	0.972945	0.100537	0.978126	71.838926	34.135808	0.000302	-79.378750	-79.378750	-79.378750	0.027425	0.273217	2.830000	0.033891	0.082904	81.694582
1239.275037	0.965905	0.102758	0.971355	71.556090	34.638796	0.000289	-79.549274	-79.549274	-79.549274	0.026414	0.263647	2.830000	0.032906	0.081700	81.817791
1257.126212	0.959446	0.105678	0.965248	71.275513	35.148910	0.000277	-79.715804	-79.715804	-79.715804	0.025418	0.254538	2.830000	0.031952	0.080515	81.939002
1275.234525	0.953639	0.109236	0.959874	70.997587	35.666252	0.000265	-79.878292	-79.878292	-79.878292	0.024439	0.245887	2.830000	0.031025	0.079347	82.058250
1293.603680	0.948547	0.113365	0.955297	70.722686	36.190922	0.000254	-80.036710	-80.036710	-80.036710	0.023479	0.237690	2.830000	0.030127	0.078196	82.175574
1312.237433	0.944229	0.117989	0.951572	70.451156	36.723025	0.000243	-80.191045	-80.191045	-80.191045	0.022541	0.229939	2.830000	0.029255	0.077063	82.291008
1331.139597	0.940736	0.123024	0.948746	70.183309	37.262665	0.000233	-80.341306	-80.341306	-80.341306	0.021628	0.222623	2.830000	0.028409	0.075947	82.404589
1350.314038	0.938110	0.128379	0.946853	69.919413	37.809950	0.000223	-80.487517	-80.487517	-80.487517	0.020741	0.215732	2.830000	0.027588	0.074848	82.516351
1369.764677	0.936383	0.133958	0.945917	69.659683	38.364986	0.000214	-80.629725	-80.629725	-80.629725	0.019884	0.209249	2.830000	0.026792	0.073765	82.626330
1389.495494	0.935579	0.139657	0.945945	69.404275	38.927886	0.000205	-80.767998	-80.767998	-80.767998	0.019057	0.203159	2.830000	0.026019	0.072699	82.734561
1409.510524	0.935707	0.145369	0.946932	69.153279	39.498760	0.000196	-80.902423	-80.902423	-80.902423	0.018263	0.197441	2.830000	0.025269	0.071648	82.841076
1429.813862	0.936766	0.150986	0.948856	68.906712	40.077722	0.000188	-81.033109	-81.033109	-81.033109	0.017504	0.192077	2.830000	0.024541	0.070613	82.945909
1450.409659	0.938741	0.156396	0.951679	68.664518	40.664888	0.000180	-81.160187	-81.160187	-81.160187	0.016782	0.187042	2.830000	0.023835	0.069593	83.049093
1471.302129	0.941602	0.161487	0.955349	68.426563	41.260375	0.000172	-81.283806	-81.283806	-81.283806	0.016098	0.182314	2.830000	0.023149	0.068589	83.150661
1492.495545	0.945307	0.166151	0.959798	68.192634	41.864303	0.000165	-81.404136	-81.404136	-81.404136	0.015453	0.177866	2.830000	0.022483	0.067599	83.250644
1513.994242	0.949798	0.170283	0.964942	67.962446	42.476794	0.000158	-81.521363	-81.521363	-81.521363	0.014848	0.173674	2.830000	0.021838	0.066625	83.349073
1535.802619	0.955004	0.173782	0.970687	67.735639	43.097970	0.000151	-81.635692	-81.635692	-81.635692	0.014284	0.169709	2.830000	0.021211	0.065664	83.445979
1557.925134	0.960839	0.176557	0.976926	67.511791	43.727959	0.000145	-81.747341	-81.747341	-81.747341	0.013761	0.165945	2.830000	0.020602	0.064718	83.541391
1580.366314	0.967204	0.178527	0.983542	67.290418	44.366887	0.000139	-81.856537	-81.856537	-81.856537	0.013279	0.162354	2.830000	0.020011	0.063786	83.635339
1603.130749	0.973988	0.179622	0.990412	67.070988	45.014884	0.000133	-81.963522	-81.963522	-81.963522	0.012837	0.158910	2.830000	0.019438	0.062868	83.727850
1626.223094	0.981069	0.179787	0.997406	66.852928	45.672083	0.000127	-82.068538	-82.068538	-82.068538	0.012435	0.155585	2.830000	0.018881	0.061963	83.818953
1649.648074	0.988315	0.178983	1.004391	66.635636	46.338618	0.000122	-82.171834	-82.171834	-82.171834	0.012070	0.152355	2.830000	0.018340	0.061072	83.908675
1673.410480	0.995589	0.177188	1.011234	66.418491	47.014625	0.000117	-82.273656	-82.273656	-82.273656	0.011742	0.149195	2.830000	0.017815	0.060194	83.997041
1697.515172	1.002748	0.174401	1.017801	66.200865	47.700244	0.000112	-82.374245	-82.374245	-82.374245	0.011448	0.146083	2.830000	0.017305	0.059329	84.084077
1721.967081	1.009646	0.170641	1.023965	65.982135	48.395615	0.000107	-82.473834	-82.473834	-82.473834	0.011185	0.142998	2.830000	0.016810	0.058476	84.169806
1746.771208	1.016140	0.165947	1.029601	65.761693	49.100881	0.000103	-82.572640	-82.572640	-82.572640	0.010951	0.139922	2.830000	0.016330	0.057636	84.254254
1771.932627	1.022090	0.160383	1.034597	65.538961	49.816189	0.000098	-82.670866	-82.670866	-82.670866	0.010742	0.136838	2.830000	0.015863	0.056809	84.337443
1797.456484	1.027364	0.154032	1.038847	65.313398	50.541685	0.000094	-82.768691	-82.768691	-82.768691	0.010555	0.133733	2.830000	0.015410	0.055993	84.419394
1823.348001	1.031843	0.146998	1.042262	65.084515	51.277521	0.000090	-82.866269	-82.866269	-82.866269	0.010386	0.130598	2.830000	0.014970	0.055190	84.500128
1849.612473	1.035422	0.139407	1.044764	64.851884	52.023848	0.000086	-82.963724	-82.963724	-82.963724	0.010231	0.127426	2.830000	0.014542	0.054398	84.579667
1876.255272	1.038013	0.131401	1.046297	64.615149	52.780821	0.000083	-83.061149	-83.061149	-83.061149	0.010086	0.124212	2.830000	0.014127	0.053618	84.658030
1903.281848	1.039554	0.123138	1.046821	64.374035	53.548596	0.000079	-83.158600	-83.158600	-83.158600	0.009947	0.120956	2.830000	0.013724	0.052849	84.735236
1930.697729	1.040003	0.114788	1.046319	64.128363	54.327332	0.000076	-83.256096	-83.256096	-83.256096	0.009810	0.117661	2.830000	0.013332	0.052092	84.811302
1958.508523	1.039351	0.106528	1.044796	63.878053	55.117192	0.000073	-83.353621	-83.353621	-83.353621	0.009671	0.114334	2.830000	0.012952	0.051345	84.886247
1986.719919	1.037613	0.098540	1.042282	63.623137	55.918336	0.000070	-83.451116	-83.451116	-83.451116	0.009527	0.110981	2.830000	0.012582	0.050610	84.960087
2015.337686	1.034841	0.091002	1.038835	63.363764	56.730932	0.000067	-83.548488	-83.548488	-83.548488	0.009374	0.107616	2.830000	0.012223	0.049885	85.032838
2044.367679	1.031113	0.084089	1.034536	63.100207	57.555146	0.000064	-83.645607	-83.645607	-83.645607	0.009210	0.104251	2.830000	0.011875	0.049170	85.104516
2073.815835	1.026541	0.077959	1.029497	62.832867	58.391148	0.000061	-83.742312	-83.742312	-83.742312	0.009032	0.100904	2.830000	0.011537	0.048466	85.175137
2103.688178	1.021265	0.072754	1.023854	62.562271	59.239109	0.000059	-83.838413	-83.838413	-83.838413	0.008838	0.097589	2.830000	0.011208	0.047772	85.244716
2133.990819	1.015452	0.068591	1.017765	62.289066	60.099204	0.000056	-83.933698	-83.933698	-83.933698	0.008629	0.094326	2.830000	0.010888	0.047089	85.313266
2164.729954	1.009289	0.065557	1.011416	62.014017	60.971608	0.000054	-84.027941	-84.027941	-84.027941	0.008402	0.091133	2.830000	0.010578	0.046415	85.380803
2195.911873	1.002983	0.063705	1.005004	61.737984	61.856499	0.000052	-84.120905	-84.120905	-84.120905	0.008159	0.088028	2.830000	0.010277	0.045751	85.447341
2227.542952	0.996751	0.063050	0.998743	61.461903	62.754057	0.000050	-84.212356	-84.212356	-84.212356	0.007901	0.085026	2.830000	0.009985	0.045097	85.512893
2259.629662	0.990813	0.063566	0.992850	61.186759	63.664466	0.000047	-84.302067	-84.302067	-84.302067	0.007630	0.082144	2.830000	0.009700	0.044452	85.577475
2292.178566	0.985387	0.065182	0.987540	60.913545	64.587910	0.000045	-84.389830	-84.389830	-84.389830	0.007349	0.079395	2.830000	0.009424	0.043816	85.641099
2325.196322	0.980674	0.067787	0.983014	60.643224	65.524576	0.000044	-84.475464	-84.475464	-84.475464	0.007060	0.076788	2.830000	0.009156	0.043190	85.703779
2358.689683	0.976859	0.071229	0.979452	60.376681	66.474654	0.000042	-84.558821	-84.558821	-84.558821	0.006767	0.074330	2.830000	0.008896	0.042573	85.765531
2392.665500	0.974091	0.075317	0.976998	60.114673	67.438336	0.000040	-84.639796	-84.639796	-84.639796	0.006475	0.072026	2.830000	0.008643	0.041964	85.826368
2427.130723	0.972484	0.079832	0.975755	59.857782	68.415817	0.000038	-84.718334	-84.718334	-84.718334	0.006187	0.069875	2.830000	0.008398	0.041365	85.886304
2462.092401	0.972106	0.084528	0.975774	59.606377	69.407296	0.000037	-84.794430	-84.794430	-84.794430	0.005908	0.067873	2.830000	0.008159	0.040774	85.945353
2497.557686	0.972972	0.089147	0.977047	59.360576	70.412973	0.000035	-84.868136	-84.868136	-84.868136	0.005641	0.066013	2.830000	0.007927	0.040191	86.003530
2533.533832	0.975043	0.093428	0.979509	59.120229	71.433052	0.000034	-84.939558	-84.939558	-84.939558	0.005392	0.064284	2.830000	0.007702	0.039618	86.060850
2570.028197	0.978224	0.097116	0.983033	58.884913	72.467740	0.000032	-85.008856	-85.008856	-85.008856	0.005162	0.062673	2.830000	0.007483	0.039052	86.117326
2607.048246	0.982364	0.099982	0.987439	58.653941	73.517248	0.000031	-85.076235	-85.076235	-85.076235	0.004954	0.061163	2.830000	0.007271	0.038494	86.172973
2644.601552	0.987260	0.101826	0.992497	58.426396	74.581788	0.000030	-85.141944	-85.141944	-85.141944	0.004771	0.059736	2.830000	0.007065	0.037945	86.227804
2682.695795	0.992666	0.102499	0.997944	58.201168	75.661579	0.000028	-85.206259	-85.206259	-85.206259	0.004613	0.058373	2.830000	0.006864	0.037403	86.281834
2721.338768	0.998304	0.101907	1.003492	57.977013	76.756840	0.000027	-85.269476	-85.269476	-85.269476	0.004480	0.057055	2.830000	0.006670	0.036870	86.335077
2760.538375	1.003873	0.100021	1.008843	57.752615	77.867797	0.000026	-85.331894	-85.331894	-85.331894	0.004370	0.055763	2.830000	0.006480	0.036344	86.387545
2800.302634	1.009068	0.096883	1.013708	57.526655	78.994676	0.000025	-85.393801	-85.393801	-85.393801	0.004282	0.054481	2.830000	0.006297	0.035825	86.439252
2840.639679	1.013597	0.092610	1.017819	57.297883	80.137710	0.000024	-85.455461	-85.455461	-85.455461	0.004213	0.053194	2.830000	0.006118	0.035314	86.490211
2881.557759	1.017197	0.087386	1.020944	57.065190	81.297133	0.000023	-85.517097	-85.517097	-85.517097	0.004158	0.051890	2.830000	0.005945	0.034811	86.540432
2923.065245	1.019655	0.081459	1.022904	56.827664	82.473185	0.000022	-85.578877	-85.578877	-85.578877	0.004112	0.050561	2.830000	0.005776	0.034314	86.589928
2965.170628	1.020819	0.075130	1.023580	56.584660	83.666106	0.000021	-85.640904	-85.640904	-85.640904	0.004072	0.049204	2.830000	0.005613	0.033825	86.638711
3007.882518	1.020617	0.068732	1.022929	56.335839	84.876143	0.000020	-85.703213	-85.703213	-85.703213	0.004032	0.047820	2.830000	0.005453	0.033343	86.686789
3051.209653	1.019062	0.062616	1.020984	56.081213	86.103545	0.000019	-85.765759	-85.765759	-85.765759	0.003987	0.046412	2.830000	0.005299	0.032867	86.734175
3095.160895	1.016260	0.057123	1.017864	55.821161	87.348564	0.000018	-85.828425	-85.828425	-85.828425	0.003933	0.044989	2.830000	0.005149	0.032399	86.780877
3139.745234	1.012404	0.052563	1.013767	55.556436	88.611456	0.000018	-85.891028	-85.891028	-85.891028	0.003866	0.043563	2.830000	0.005003	0.031937	86.826906
3184.971790	1.007767	0.049189	1.008967	55.288140	89.892480	0.000017	-85.953328	-85.953328	-85.953328	0.003784	0.042147	2.830000	0.004861	0.031482	86.872269
3230.849813	1.002690	0.047177	1.003799	55.017678	91.191899	0.000016	-86.015045	-86.015045	-86.015045	0.003687	0.040757	2.830000	0.004723	0.031033	86.916977
3277.388687	0.997553	0.046606	0.998641	54.746680	92.509977	0.000016	-86.075882	-86.075882	-86.075882	0.003573	0.039408	2.830000	0.004590	0.030591	86.961037
3324.597932	0.992754	0.047446	0.993888	54.476888	93.846985	0.000015	-86.135544	-86.135544	-86.135544	0.003446	0.038113	2.830000	0.004460	0.030155	87.004459
3372.487204	0.988675	0.049556	0.989916	54.210023	95.203194	0.000014	-86.193766	-86.193766	-86.193766	0.003307	0.036886	2.830000	0.004333	0.029726	87.047252
3421.066299	0.985649	0.052687	0.987057	53.947625	96.578881	0.000014	-86.250332	-86.250332	-86.250332	0.003161	0.035735	2.830000	0.004211	0.029302	87.089424
3470.345152	0.983931	0.056501	0.985552	53.690903	97.974326	0.000013	-86.305097	-86.305097	-86.305097	0.003013	0.034665	2.830000	0.004092	0.028885	87.130984
3520.333844	0.983668	0.060588	0.985533	53.440587	99.389813	0.000013	-86.358005	-86.358005	-86.358005	0.002868	0.033677	2.830000	0.003976	0.028474	87.171941
3571.042600	0.984884	0.064507	0.986994	53.196832	100.825629	0.000012	-86.409091	-86.409091	-86.409091	0.002731	0.032766	2.830000	0.003863	0.028068	87.212305
3622.481792	0.987465	0.067817	0.989791	52.959164	102.282067	0.000011	-86.458487	-86.458487	-86.458487	0.002607	0.031924	2.830000	0.003754	0.027669	87.252085
3674.661941	0.991167	0.070128	0.993645	52.726501	103.759423	0.000011	-86.506411	-86.506411	-86.506411	0.002499	0.031140	2.830000	0.003648	0.027275	87.291289
3727.593720	0.995629	0.071133	0.998167	52.497243	105.258000	0.000011	-86.553152	-86.553152	-86.553152	0.002410	0.030399	2.830000	0.003545	0.026886	87.329928
3781.287957	1.000404	0.070651	1.002896	52.269419	106.778102	0.000010	-86.599040	-86.599040	-86.599040	0.002341	0.029685	2.830000	0.003444	0.026504	87.368011
3835.755635	1.005000	0.068648	1.007342	52.040881	108.320042	0.000010	-86.644421	-86.644421	-86.644421	0.002291	0.028983	2.830000	0.003347	0.026126	87.405546
3891.007893	1.008930	0.065255	1.011038	51.809529	109.884136	0.000009	-86.689618	-86.689618	-86.689618	0.002256	0.028279	2.830000	0.003252	0.025754	87.442542
3947.056035	1.011767	0.060755	1.013589	51.573525	111.470703	0.000009	-86.734903	-86.734903	-86.734903	0.002234	0.027563	2.830000	0.003160	0.025388	87.479008
4003.911523	1.013192	0.055567	1.014715	51.331507	113.080070	0.000009	-86.780457	-86.780457	-86.780457	0.002218	0.026828	2.830000	0.003071	0.025027	87.514952
4061.585988	1.013044	0.050203	1.014287	51.082747	114.712568	0.000008	-86.826360	-86.826360	-86.826360	0.002203	0.026071	2.830000	0.002984	0.024670	87.550381
4120.091227	1.011340	0.045209	1.012350	50.827273	116.368532	0.000008	-86.872570	-86.872570	-86.872570	0.002184	0.025297	2.830000	0.002900	0.024319	87.585303
4179.439206	1.008290	0.041105	1.009128	50.565905	118.048301	0.000007	-86.918933	-86.918933	-86.918933	0.002154	0.024513	2.830000	0.002818	0.023973	87.619725
4239.642065	1.004280	0.038314	1.005011	50.300221	119.752221	0.000007	-86.965194	-86.965194	-86.965194	0.002112	0.023729	2.830000	0.002738	0.023632	87.653654
4300.712118	0.999828	0.037103	1.000516	50.032407	121.480639	0.000007	-87.011032	-87.011032	-87.011032	0.002055	0.022959	2.830000	0.002661	0.023296	87.687096
4362.661857	0.995527	0.037535	0.996235	49.765025	123.233910	0.000007	-87.056100	-87.056100	-87.056100	0.001984	0.022216	2.830000	0.002585	0.022964	87.720058
4425.503952	0.991967	0.039454	0.992751	49.500679	125.012392	0.000006	-87.100071	-87.100071	-87.100071	0.001902	0.021512	2.830000	0.002512	0.022638	87.752546
4489.251258	0.989647	0.042492	0.990559	49.241639	126.816447	0.000006	-87.142687	-87.142687	-87.142687	0.001812	0.020856	2.830000	0.002441	0.022316	87.784566
4553.916814	0.988903	0.046107	0.989977	48.989462	128.646443	0.000006	-87.183795	-87.183795	-87.183795	0.001720	0.020252	2.830000	0.002372	0.021998	87.816126
4619.513847	0.989844	0.049660	0.991089	48.744699	130.502752	0.000006	-87.223379	-87.223379	-87.223379	0.001634	0.019699	2.830000	0.002305	0.021685	87.847233
4686.055775	0.992324	0.052504	0.993712	48.506742	132.385754	0.000005	-87.261563	-87.261563	-87.261563	0.001557	0.019191	2.830000	0.002240	0.021377	87.877892
4753.556208	0.995949	0.054089	0.997417	48.273869	134.295833	0.000005	-87.298599	-87.298599	-87.298599	0.001494	0.018718	2.830000	0.002177	0.021073	87.908111
4822.028953	1.000130	0.054055	1.001590	48.043490	136.233379	0.000005	-87.334830	-87.334830	-87.334830	0.001448	0.018267	2.830000	0.002115	0.020773	87.937897
4891.488015	1.004168	0.052302	1.005529	47.812557	138.198787	0.000005	-87.370640	-87.370640	-87.370640	0.001419	0.017824	2.830000	0.002056	0.020478	87.967257
4961.947603	1.007369	0.049028	1.008562	47.578068	140.192462	0.000004	-87.406390	-87.406390	-87.406390	0.001402	0.017378	2.830000	0.001998	0.020187	87.996197
5033.422128	1.009169	0.044703	1.010159	47.337588	142.214810	0.000004	-87.442356	-87.442356	-87.442356	0.001394	0.016920	2.830000	0.001941	0.019899	88.024724
5105.926210	1.009243	0.040005	1.010036	47.089695	144.266248	0.000004	-87.478682	-87.478682	-87.478682	0.001389	0.016446	2.830000	0.001886	0.019617	88.052844
5179.474679	1.007579	0.035701	1.008211	46.834284	146.347195	0.000004	-87.515348	-87.515348	-87.515348	0.001379	0.015957	2.830000	0.001833	0.019338	88.080563
5254.082580	1.004499	0.032505	1.005025	46.572659	148.458080	0.000004	-87.552170	-87.552170	-87.552170	0.001361	0.015461	2.830000	0.001781	0.019063	88.107886
5329.765172	1.000615	0.030933	1.001093	46.307387	150.599333	0.000004	-87.588838	-87.588838	-87.588838	0.001329	0.014968	2.830000	0.001731	0.018792	88.134819
5406.537936	0.996719	0.031185	0.997207	46.041865	152.771394	0.000003	-87.624971	-87.624971	-87.624971	0.001284	0.014489	2.830000	0.001682	0.018524	88.161366
5484.416576	0.993627	0.033087	0.994177	45.779676	154.974706	0.000003	-87.660196	-87.660196	-87.660196	0.001228	0.014037	2.830000	0.001635	0.018261	88.187534
5563.417021	0.992002	0.036108	0.992659	45.523805	157.209719	0.000003	-87.694230	-87.694230	-87.694230	0.001165	0.013619	2.830000	0.001588	0.018001	88.213327
5643.555431	0.992202	0.039455	0.992986	45.275905	159.476888	0.000003	-87.726946	-87.726946	-87.726946	0.001103	0.013237	2.830000	0.001543	0.017746	88.238750
5724.848197	0.994179	0.042241	0.995076	45.035819	161.776677	0.000003	-87.758403	-87.758403	-87.758403	0.001048	0.012889	2.830000	0.001500	0.017493	88.263810
5807.311946	0.997466	0.043691	0.998423	44.801521	164.109555	0.000003	-87.788843	-87.788843	-87.788843	0.001005	0.012567	2.830000	0.001458	0.017245	88.288510
5890.963548	1.001270	0.043330	1.002207	44.569539	166.475999	0.000003	-87.818640	-87.818640	-87.818640	0.000976	0.012259	2.830000	0.001416	0.016999	88.312858
5975.820111	1.004645	0.041123	1.005487	44.335769	168.876492	0.000003	-87.848211	-87.848211	-87.848211	0.000962	0.011954	2.830000	0.001376	0.016758	88.336859
6061.898993	1.006734	0.037506	1.007432	44.096490	171.311526	0.000002	-87.877917	-87.877917	-87.877917	0.000957	0.011642	2.830000	0.001338	0.016520	88.360517
6149.217802	1.006991	0.033297	1.007541	43.849334	173.781601	0.000002	-87.907968	-87.907968	-87.907968	0.000955	0.011318	2.830000	0.001300	0.016285	88.383838
6237.794396	1.005350	0.029498	1.005783	43.593958	176.287223	0.000002	-87.938369	-87.938369	-87.938369	0.000950	0.010981	2.830000	0.001263	0.016053	88.406827
6327.646895	1.002271	0.027026	1.002635	43.332257	178.828905	0.000002	-87.968912	-87.968912	-87.968912	0.000936	0.010639	2.830000	0.001227	0.015825	88.429489
6418.793677	0.998633	0.026446	0.998983	43.067975	181.407168	0.000002	-87.999229	-87.999229	-87.999229	0.000910	0.010302	2.830000	0.001193	0.015600	88.451827
6511.253386	0.995505	0.027783	0.995893	42.805746	184.022538	0.000002	-88.028900	-88.028900	-88.028900	0.000872	0.009980	2.830000	0.001159	0.015379	88.473846
6605.044933	0.993829	0.030490	0.994296	42.549745	186.675551	0.000002	-88.057575	-88.057575	-88.057575	0.000826	0.009682	2.830000	0.001126	0.015160	88.495551
6700.187504	0.994120	0.033580	0.994687	42.302320	189.366748	0.000002	-88.085086	-88.085086	-88.085086	0.000781	0.009412	2.830000	0.001095	0.014945	88.516946
6796.700558	0.996281	0.035924	0.996928	42.063103	192.096677	0.000002	-88.111503	-88.111503	-88.111503	0.000742	0.009166	2.830000	0.001064	0.014732	88.538035
6894.603838	0.999599	0.036607	1.000269	41.828995	194.865898	0.000002	-88.137124	-88.137124	-88.137124	0.000714	0.008937	2.830000	0.001034	0.014523	88.558823
6993.917368	1.002954	0.035255	1.003573	41.595111	197.674975	0.000002	-88.162378	-88.162378	-88.162378	0.000700	0.008715	2.830000	0.001005	0.014316	88.579314
7094.661463	1.005182	0.032190	1.005698	41.356410	200.524485	0.000002	-88.187690	-88.187690	-88.187690	0.000697	0.008488	2.830000	0.000976	0.014113	88.599514
7196.856730	1.005494	0.028355	1.005894	41.109456	203.415010	0.000001	-88.213329	-88.213329	-88.213329	0.000697	0.008252	2.830000	0.000949	0.013912	88.619426
7300.524071	1.003780	0.025003	1.004091	40.853716	206.347143	0.000001	-88.239313	-88.239313	-88.239313	0.000694	0.008006	2.830000	0.000922	0.013715	88.639055
7405.684692	1.000691	0.023235	1.000961	40.591918	209.321485	0.000001	-88.265394	-88.265394	-88.265394	0.000682	0.007757	2.830000	0.000896	0.013520	88.658404
7512.360102	0.997428	0.023573	0.997706	40.329207	212.338644	0.000001	-88.291154	-88.291154	-88.291154	0.000658	0.007513	2.830000	0.000871	0.013328	88.677478
7620.572122	0.995288	0.025715	0.995620	40.071269	215.399237	0.000001	-88.316160	-88.316160	-88.316160	0.000625	0.007286	2.830000	0.000846	0.013138	88.696280
7730.342884	0.995144	0.028614	0.995556	39.821995	218.503889	0.000001	-88.340143	-88.340143	-88.340143	0.000589	0.007079	2.830000	0.000822	0.012952	88.714813
7841.694843	0.997051	0.030883	0.997529	39.581696	221.653235	0.000001	-88.363118	-88.363118	-88.363118	0.000559	0.006892	2.830000	0.000799	0.012768	88.733082
7954.650775	1.000176	0.031377	1.000668	39.346770	224.847917	0.000001	-88.385380	-88.385380	-88.385380	0.000539	0.006719	2.830000	0.000776	0.012586	88.751091
8069.233784	1.003128	0.029710	1.003568	39.111155	228.088589	0.000001	-88.407390	-88.407390	-88.407390	0.000530	0.006549	2.830000	0.000754	0.012407	88.768843
8185.467307	1.004559	0.026480	1.004908	38.869006	231.375914	0.000001	-88.429571	-88.429571	-88.429571	0.000530	0.006374	2.830000	0.000733	0.012231	88.786342
8303.375120	1.003803	0.023033	1.004067	38.617404	234.710567	0.000001	-88.452112	-88.452112	-88.452112	0.000531	0.006190	2.830000	0.000712	0.012057	88.803593
8422.981339	1.001232	0.020856	1.001450	38.357876	238.093228	0.000001	-88.474880	-88.474880	-88.474880	0.000525	0.006000	2.830000	0.000692	0.011886	88.820598
8544.310429	0.998129	0.020844	0.998347	38.095902	241.524592	0.000001	-88.497476	-88.497476	-88.497476	0.000508	0.005813	2.830000	0.000673	0.011717	88.837361
8667.387209	0.996076	0.022812	0.996337	37.838380	245.005359	0.000001	-88.519432	-88.519432	-88.519432	0.000482	0.005637	2.830000	0.000654	0.011551	88.853885
8792.236851	0.996144	0.025539	0.996471	37.590068	248.536241	0.000001	-88.540454	-88.540454	-88.540454	0.000454	0.005478	2.830000	0.000635	0.011387	88.870174
8918.884894	0.998288	0.027367	0.998663	37.350839	252.117959	0.000001	-88.560583	-88.560583	-88.560583	0.000431	0.005335	2.830000	0.000617	0.011225	88.886231
9047.357242	1.001313	0.027100	1.001680	37.115507	255.751246	0.000001	-88.580184	-88.580184	-88.580184	0.000419	0.005201	2.830000	0.000600	0.011065	88.902059
9177.680175	1.003497	0.024708	1.003801	36.876587	259.436844	0.000001	-88.599747	-88.599747	-88.599747	0.000417	0.005065	2.830000	0.000583	0.010908	88.917661
9309.880348	1.003569	0.021404	1.003797	36.628552	263.175508	0.000001	-88.619617	-88.619617	-88.619617	0.000418	0.004923	2.830000	0.000567	0.010753	88.933042
9443.984802	1.001495	0.018976	1.001675	36.371186	266.968003	0.000001	-88.639785	-88.639785	-88.639785	0.000416	0.004774	2.830000	0.000551	0.010601	88.948205
9580.020968	0.998564	0.018718	0.998740	36.109985	270.815106	0.000001	-88.659889	-88.659889	-88.659889	0.000404	0.004626	2.830000	0.000535	0.010450	88.963151
9718.016671	0.996636	0.020581	0.996848	35.853032	274.717604	0.000001	-88.679436	-88.679436	-88.679436	0.000382	0.004487	2.830000	0.000520	0.010301	88.977885
9858.000137	0.996958	0.023139	0.997227	35.605857	278.676294	0.000001	-88.698117	-88.698117	-88.698117	0.000359	0.004362	2.830000	0.000505	0.010155	88.992409
10000.000000	0.999305	0.024473	0.999605	35.367538	282.691985	0.000001	-88.716018	-88.716018	-88.716018	0.000343	0.004249	2.830000	0.000491	0.010011	89.006726
10144.045304	1.002054	0.023465	1.002329	35.131032	286.765498	0.000001	-88.733568	-88.733568	-88.733568	0.000336	0.004140	2.830000	0.000477	0.009869	89.020839
10290.165513	1.003267	0.020627	1.003479	34.887914	290.897667	0.000001	-88.751256	-88.751256	-88.751256	0.000337	0.004029	2.830000	0.000464	0.009729	89.034752
10438.390514	1.002073	0.017810	1.002231	34.634372	295.089337	0.000000	-88.769284	-88.769284	-88.769284	0.000338	0.003910	2.830000	0.000451	0.009590	89.048467
10588.750628	0.999375	0.016890	0.999518	34.374221	299.341366	0.000000	-88.787415	-88.787415	-88.787415	0.000331	0.003790	2.830000	0.000438	0.009454	89.061987
10741.276608	0.997242	0.018339	0.997411	34.116413	303.654626	0.000000	-88.805148	-88.805148	-88.805148	0.000314	0.003675	2.830000	0.000426	0.009320	89.075314
10895.999653	0.997342	0.020784	0.997558	33.868287	308.029996	0.000000	-88.822101	-88.822101	-88.822101	0.000295	0.003572	2.830000	0.000414	0.009187	89.088452
11052.951411	0.999580	0.022025	0.999823	33.629507	312.468372	0.000000	-88.838320	-88.838320	-88.838320	0.000281	0.003479	2.830000	0.000402	0.009057	89.101403
11212.163986	1.002093	0.020816	1.002309	33.391980	316.970660	0.000000	-88.854251	-88.854251	-88.854251	0.000277	0.003389	2.830000	0.000391	0.008928	89.114170
11373.669943	1.002745	0.017971	1.002906	33.146433	321.537782	0.000000	-88.870377	-88.870377	-88.870377	0.000278	0.003296	2.830000	0.000380	0.008801	89.126755
11537.502317	1.000983	0.015745	1.001107	32.890397	326.170674	0.000000	-88.886811	-88.886811	-88.886811	0.000278	0.003198	2.830000	0.000369	0.008676	89.139161
11703.694619	0.998399	0.015889	0.998526	32.630696	330.870282	0.000000	-88.903186	-88.903186	-88.903186	0.000268	0.003099	2.830000	0.000358	0.008553	89.151391
11872.280844	0.997372	0.018014	0.997534	32.377685	335.637569	0.000000	-88.918988	-88.918988	-88.918988	0.000252	0.003009	2.830000	0.000348	0.008432	89.163447
12043.295474	0.998857	0.019860	0.999054	32.135618	340.473508	0.000000	-88.934031	-88.934031	-88.934031	0.000238	0.002928	2.830000	0.000339	0.008312	89.175331
12216.773490	1.001398	0.019401	1.001586	31.898200	345.379088	0.000000	-88.948643	-88.948643	-88.948643	0.000232	0.002853	2.830000	0.000329	0.008194	89.187047
12392.750375	1.002465	0.016863	1.002607	31.654439	350.355313	0.000000	-88.963356	-88.963356	-88.963356	0.000233	0.002776	2.830000	0.000320	0.008078	89.198596
12571.262124	1.000984	0.014598	1.001091	31.399621	355.403202	0.000000	-88.978379	-88.978379	-88.978379	0.000233	0.002693	2.830000	0.000311	0.007963	89.209980
12752.345251	0.998525	0.014717	0.998633	31.140465	360.523787	0.000000	-88.993381	-88.993381	-88.993381	0.000225	0.002611	2.830000	0.000302	0.007850	89.221203
12936.036796	0.997732	0.016815	0.997873	30.888485	365.718115	0.000000	-89.007837	-89.007837	-89.007837	0.000211	0.002535	2.830000	0.000293	0.007738	89.232267
13122.374331	0.999462	0.018307	0.999629	30.647499	370.987248	0.000000	-89.021595	-89.021595	-89.021595	0.000200	0.002468	2.830000	0.000285	0.007628	89.243173
13311.395971	1.001739	0.017256	1.001888	30.408950	376.332265	0.000000	-89.035056	-89.035056	-89.035056	0.000197	0.002404	2.830000	0.000277	0.007520	89.253923
13503.140379	1.001924	0.014637	1.002031	30.161362	381.754257	0.000000	-89.048725	-89.048725	-89.048725	0.000199	0.002337	2.830000	0.000269	0.007413	89.264522
13697.646775	0.999818	0.013307	0.999907	29.903798	387.254335	0.000000	-89.062627	-89.062627	-89.062627	0.000197	0.002266	2.830000	0.000262	0.007308	89.274969
13894.954944	0.998008	0.014599	0.998115	29.647428	392.833625	0.000000	-89.076274	-89.076274	-89.076274	0.000186	0.002198	2.830000	0.000254	0.007204	89.285268
14095.105244	0.998749	0.016601	0.998887	29.402132	398.493267	0.000000	-89.089261	-89.089261	-89.089261	0.000175	0.002138	2.830000	0.000247	0.007102	89.295421
14298.138616	1.001064	0.016466	1.001200	29.163730	404.234417	0.000000	-89.101785	-89.101785	-89.101785	0.000170	0.002082	2.830000	0.000240	0.007001	89.305429
14504.096588	1.001900	0.014118	1.002000	28.918956	410.058251	0.000000	-89.114394	-89.114394	-89.114394	0.000171	0.002025	2.830000	0.000233	0.006901	89.315295
14713.021288	1.000151	0.012456	1.000228	28.662947	415.965960	0.000000	-89.127274	-89.127274	-89.127274	0.000170	0.001965	2.830000	0.000227	0.006803	89.325021
14924.955451	0.998258	0.013477	0.998349	28.406231	421.958753	0.000000	-89.139993	-89.139993	-89.139993	0.000162	0.001906	2.830000	0.000220	0.006707	89.334608
15139.942425	0.998895	0.015417	0.999014	28.160493	428.037856	0.000000	-89.152102	-89.152102	-89.152102	0.000151	0.001853	2.830000	0.000214	0.006612	89.344060
15358.026185	1.001108	0.015167	1.001223	27.921649	434.204510	0.000000	-89.163778	-89.163778	-89.163778	0.000147	0.001805	2.830000	0.000208	0.006518	89.353376
15579.251340	1.001595	0.012834	1.001678	27.675361	440.459979	0.000000	-89.175573	-89.175573	-89.175573	0.000149	0.001755	2.830000	0.000202	0.006425	89.362561
15803.663140	0.999642	0.011691	0.999710	27.418449	446.805541	0.000000	-89.187597	-89.187597	-89.187597	0.000147	0.001702	2.830000	0.000197	0.006334	89.371615
16031.307485	0.998320	0.013199	0.998407	27.164206	453.242495	0.000000	-89.199345	-89.199345	-89.199345	0.000139	0.001652	2.830000	0.000191	0.006244	89.380540
16262.230941	0.999725	0.014615	0.999832	26.921823	459.772157	0.000000	-89.210498	-89.210498	-89.210498	0.000131	0.001608	2.830000	0.000186	0.006155	89.389339
16496.480741	1.001525	0.013326	1.001613	26.681205	466.395862	0.000000	-89.221432	-89.221432	-89.221432	0.000130	0.001565	2.830000	0.000180	0.006068	89.398012
16734.104799	1.000708	0.011219	1.000771	26.429252	473.114966	0.000000	-89.232613	-89.232613	-89.232613	0.000131	0.001520	2.830000	0.000175	0.005982	89.406563
16975.151720	0.998713	0.011597	0.998781	26.172121	479.930842	0.000000	-89.243811	-89.243811	-89.243811	0.000126	0.001474	2.830000	0.000170	0.005897	89.414991
17219.670809	0.999049	0.013443	0.999140	25.925081	486.844887	0.000000	-89.254502	-89.254502	-89.254502	0.000117	0.001433	2.830000	0.000166	0.005813	89.423300
17467.712080	1.001074	0.013111	1.001159	25.685422	493.858512	0.000000	-89.264795	-89.264795	-89.264795	0.000114	0.001395	2.830000	0.000161	0.005730	89.431491
17719.326270	1.001049	0.010929	1.001109	25.436908	500.973153	0.000000	-89.275239	-89.275239	-89.275239	0.000116	0.001356	2.830000	0.000156	0.005649	89.439566
17974.564843	0.999060	0.010697	0.999117	25.179817	508.190265	0.000000	-89.285813	-89.285813	-89.285813	0.000113	0.001315	2.830000	0.000152	0.005569	89.447526
18233.480009	0.998955	0.012497	0.999033	24.930863	515.511325	0.000000	-89.295972	-89.295972	-89.295972	0.000105	0.001278	2.830000	0.000148	0.005490	89.455372
18496.124725	1.000902	0.012436	1.000979	24.690866	522.937829	0.000000	-89.305702	-89.305702	-89.305702	0.000102	0.001244	2.830000	0.000144	0.005412	89.463107
18762.552716	1.000960	0.010345	1.001013	24.442704	530.471297	0.000000	-89.315554	-89.315554	-89.315554	0.000103	0.001209	2.830000	0.000139	0.005335	89.470733
19032.818477	0.999050	0.010216	0.999102	24.185956	538.113270	0.000000	-89.325530	-89.325530	-89.325530	0.000100	0.001173	2.830000	0.000136	0.005259	89.478250
19306.977289	0.999211	0.011941	0.999283	23.938167	545.865311	0.000000	-89.335088	-89.335088	-89.335088	0.000093	0.001140	2.830000	0.000132	0.005184	89.485660
19585.085230	1.001052	0.011454	1.001117	23.697714	553.729006	0.000000	-89.344292	-89.344292	-89.344292	0.000092	0.001110	2.830000	0.000128	0.005111	89.492965
19867.199185	1.000513	0.009530	1.000558	23.446957	561.705962	0.000000	-89.353672	-89.353672	-89.353672	0.000093	0.001078	2.830000	0.000124	0.005038	89.500166
20000.000000	0.999569	0.009438	0.999613	23.327121	565.460989	0.000000	-89.358084	-89.358084	-89.358084	0.000092	0.001063	2.830000	0.000123	0.005005	89.503485
