Freq (hertz)	Ra (norm)	Xa (norm)	Za (norm)	SPL (dB)	Ze (ohms)	Xd (mm) 	WPhase (deg)	UPhase (deg)	CPhase (deg)	Delay (msec)	Efficiency (%)	Ein (volts)	Pin (watts)	Iin (amps)	ZePhase (deg)

10.000000	0.000457	0.025645	0.025649	75.139483	7.655226	2.482486	129.659118	129.659118	129.659118	8.290866	0.027225	2.830000	0.727228	0.369682	45.963726
10.144045	0.000470	0.026015	0.026019	75.316786	7.724116	2.462241	129.232517	129.232517	129.232517	8.163101	0.028802	2.830000	0.716056	0.366385	46.322833
10.290166	0.000483	0.026389	0.026394	75.493215	7.794588	2.441916	128.806477	128.806477	128.806477	8.035878	0.030470	2.830000	0.704933	0.363072	46.680205
10.438391	0.000497	0.026769	0.026774	75.668772	7.866676	2.421515	128.381074	128.381074	128.381074	7.909245	0.032233	2.830000	0.693864	0.359745	47.035741
10.588751	0.000512	0.027154	0.027159	75.843462	7.940414	2.401045	127.956380	127.956380	127.956380	7.783249	0.034097	2.830000	0.682852	0.356405	47.389339
10.741277	0.000527	0.027545	0.027550	76.017290	8.015838	2.380512	127.532469	127.532469	127.532469	7.657937	0.036068	2.830000	0.671902	0.353051	47.740901
10.896000	0.000542	0.027942	0.027947	76.190259	8.092985	2.359922	127.109411	127.109411	127.109411	7.533354	0.038151	2.830000	0.661018	0.349686	48.090325
11.052951	0.000558	0.028344	0.028350	76.362376	8.171891	2.339280	126.687276	126.687276	126.687276	7.409544	0.040354	2.830000	0.650204	0.346309	48.437512
11.212164	0.000574	0.028752	0.028758	76.533644	8.252596	2.318593	126.266134	126.266134	126.266134	7.286550	0.042682	2.830000	0.639463	0.342922	48.782362
11.373670	0.000591	0.029166	0.029172	76.704069	8.335140	2.297866	125.846051	125.846051	125.846051	7.164414	0.045143	2.830000	0.628800	0.339526	49.124776
11.537502	0.000608	0.029586	0.029592	76.873658	8.419562	2.277104	125.427095	125.427095	125.427095	7.043176	0.047744	2.830000	0.618218	0.336122	49.464654
11.703695	0.000625	0.030012	0.030018	77.042416	8.505904	2.256315	125.009329	125.009329	125.009329	6.922875	0.050493	2.830000	0.607719	0.332710	49.801899
11.872281	0.000643	0.030444	0.030451	77.210350	8.594210	2.235504	124.592816	124.592816	124.592816	6.803548	0.053399	2.830000	0.597309	0.329291	50.136412
12.043295	0.000662	0.030882	0.030889	77.377466	8.684523	2.214676	124.177620	124.177620	124.177620	6.685233	0.056469	2.830000	0.586990	0.325867	50.468095
12.216773	0.000681	0.031327	0.031334	77.543770	8.776889	2.193837	123.763798	123.763798	123.763798	6.567964	0.059714	2.830000	0.576765	0.322438	50.796850
12.392750	0.000701	0.031778	0.031785	77.709271	8.871355	2.172994	123.351411	123.351411	123.351411	6.451775	0.063142	2.830000	0.566637	0.319004	51.122580
12.571262	0.000721	0.032235	0.032243	77.873975	8.967969	2.152151	122.940515	122.940515	122.940515	6.336697	0.066764	2.830000	0.556609	0.315568	51.445187
12.752345	0.000742	0.032699	0.032707	78.037889	9.066780	2.131315	122.531164	122.531164	122.531164	6.222761	0.070591	2.830000	0.546684	0.312128	51.764575
12.936037	0.000764	0.033169	0.033178	78.201021	9.167841	2.110491	122.123412	122.123412	122.123412	6.109996	0.074633	2.830000	0.536864	0.308688	52.080648
13.122374	0.000786	0.033647	0.033656	78.363379	9.271202	2.089684	121.717311	121.717311	121.717311	5.998429	0.078904	2.830000	0.527152	0.305246	52.393308
13.311396	0.000809	0.034131	0.034141	78.524972	9.376920	2.068900	121.312911	121.312911	121.312911	5.888086	0.083414	2.830000	0.517550	0.301805	52.702460
13.503140	0.000832	0.034622	0.034632	78.685806	9.485050	2.048145	120.910258	120.910258	120.910258	5.778990	0.088178	2.830000	0.508061	0.298364	53.008008
13.697647	0.000857	0.035121	0.035131	78.845890	9.595651	2.027422	120.509400	120.509400	120.509400	5.671166	0.093209	2.830000	0.498686	0.294925	53.309854
13.894955	0.000881	0.035626	0.035637	79.005234	9.708782	2.006739	120.110381	120.110381	120.110381	5.564634	0.098521	2.830000	0.489427	0.291489	53.607904
14.095105	0.000907	0.036139	0.036150	79.163844	9.824505	1.986099	119.713243	119.713243	119.713243	5.459413	0.104130	2.830000	0.480287	0.288055	53.902059
14.298139	0.000933	0.036659	0.036671	79.321731	9.942885	1.965508	119.318025	119.318025	119.318025	5.355521	0.110053	2.830000	0.471267	0.284626	54.192225
14.504097	0.000960	0.037186	0.037199	79.478902	10.063989	1.944970	118.924768	118.924768	118.924768	5.252976	0.116305	2.830000	0.462367	0.281201	54.478303
14.713021	0.000988	0.037721	0.037734	79.635367	10.187884	1.924491	118.533508	118.533508	118.533508	5.151792	0.122904	2.830000	0.453591	0.277781	54.760197
14.924955	0.001017	0.038264	0.038278	79.791135	10.314643	1.904074	118.144278	118.144278	118.144278	5.051982	0.129870	2.830000	0.444939	0.274367	55.037809
15.139942	0.001046	0.038815	0.038829	79.946214	10.444338	1.883726	117.757113	117.757113	117.757113	4.953558	0.137221	2.830000	0.436412	0.270960	55.311039
15.358026	0.001077	0.039373	0.039388	80.100614	10.577047	1.863449	117.372043	117.372043	117.372043	4.856532	0.144977	2.830000	0.428011	0.267560	55.579789
15.579251	0.001108	0.039940	0.039955	80.254344	10.712850	1.843248	116.989098	116.989098	116.989098	4.760911	0.153162	2.830000	0.419738	0.264169	55.843959
15.803663	0.001140	0.040514	0.040530	80.407413	10.851827	1.823129	116.608303	116.608303	116.608303	4.666705	0.161796	2.830000	0.411592	0.260786	56.103446
16.031307	0.001173	0.041097	0.041114	80.559830	10.994065	1.803093	116.229686	116.229686	116.229686	4.573918	0.170904	2.830000	0.403575	0.257412	56.358148
16.262231	0.001207	0.041688	0.041706	80.711605	11.139654	1.783147	115.853268	115.853268	115.853268	4.482557	0.180511	2.830000	0.395687	0.254047	56.607961
16.496481	0.001242	0.042288	0.042306	80.862748	11.288684	1.763292	115.479073	115.479073	115.479073	4.392625	0.190641	2.830000	0.387929	0.250694	56.852779
16.734105	0.001278	0.042896	0.042915	81.013266	11.441252	1.743534	115.107119	115.107119	115.107119	4.304124	0.201323	2.830000	0.380300	0.247351	57.092494
16.975152	0.001315	0.043513	0.043533	81.163170	11.597459	1.723876	114.737424	114.737424	114.737424	4.217055	0.212585	2.830000	0.372802	0.244019	57.326997
17.219671	0.001353	0.044139	0.044160	81.312469	11.757407	1.704321	114.370005	114.370005	114.370005	4.131419	0.224457	2.830000	0.365434	0.240699	57.556175
17.467712	0.001393	0.044774	0.044796	81.461172	11.921205	1.684872	114.004876	114.004876	114.004876	4.047215	0.236969	2.830000	0.358196	0.237392	57.779914
17.719326	0.001433	0.045418	0.045441	81.609288	12.088966	1.665534	113.642050	113.642050	113.642050	3.964439	0.250154	2.830000	0.351088	0.234098	57.998097
17.974565	0.001475	0.046071	0.046095	81.756827	12.260808	1.646308	113.281537	113.281537	113.281537	3.883089	0.264046	2.830000	0.344111	0.230817	58.210602
18.233480	0.001517	0.046734	0.046759	81.903798	12.436851	1.627198	112.923347	112.923347	112.923347	3.803160	0.278680	2.830000	0.337263	0.227550	58.417306
18.496125	0.001561	0.047406	0.047432	82.050210	12.617225	1.608206	112.567488	112.567488	112.567488	3.724647	0.294093	2.830000	0.330545	0.224297	58.618081
18.762553	0.001607	0.048088	0.048115	82.196072	12.802063	1.589336	112.213965	112.213965	112.213965	3.647544	0.310325	2.830000	0.323955	0.221058	58.812795
19.032818	0.001653	0.048779	0.048807	82.341393	12.991503	1.570590	111.862783	111.862783	111.862783	3.571842	0.327414	2.830000	0.317495	0.217835	59.001312
19.306977	0.001701	0.049481	0.049510	82.486182	13.185691	1.551970	111.513945	111.513945	111.513945	3.497535	0.345403	2.830000	0.311162	0.214627	59.183491
19.585085	0.001750	0.050192	0.050222	82.630447	13.384778	1.533479	111.167452	111.167452	111.167452	3.424613	0.364336	2.830000	0.304956	0.211434	59.359185
19.867199	0.001801	0.050914	0.050945	82.774199	13.588924	1.515119	110.823303	110.823303	110.823303	3.353067	0.384256	2.830000	0.298877	0.208258	59.528242
20.153377	0.001853	0.051646	0.051679	82.917444	13.798295	1.496892	110.481497	110.481497	110.481497	3.282885	0.405213	2.830000	0.292924	0.205098	59.690505
20.443677	0.001907	0.052388	0.052423	83.060193	14.013063	1.478800	110.142031	110.142031	110.142031	3.214057	0.427254	2.830000	0.287096	0.201954	59.845807
20.738158	0.001963	0.053141	0.053177	83.202453	14.233411	1.460845	109.804900	109.804900	109.804900	3.146571	0.450429	2.830000	0.281393	0.198828	59.993977
21.036882	0.002019	0.053905	0.053943	83.344232	14.459530	1.443028	109.470099	109.470099	109.470099	3.080414	0.474793	2.830000	0.275812	0.195719	60.134835
21.339908	0.002078	0.054680	0.054719	83.485540	14.691618	1.425352	109.137620	109.137620	109.137620	3.015573	0.500398	2.830000	0.270354	0.192627	60.268192
21.647300	0.002138	0.055465	0.055507	83.626385	14.929885	1.407817	108.807454	108.807454	108.807454	2.952035	0.527301	2.830000	0.265017	0.189553	60.393851
21.959119	0.002200	0.056263	0.056306	83.766773	15.174550	1.390426	108.479592	108.479592	108.479592	2.889785	0.555560	2.830000	0.259801	0.186496	60.511605
22.275430	0.002264	0.057071	0.057116	83.906715	15.425844	1.373179	108.154023	108.154023	108.154023	2.828809	0.585236	2.830000	0.254703	0.183458	60.621235
22.596297	0.002330	0.057891	0.057938	84.046216	15.684007	1.356078	107.830734	107.830734	107.830734	2.769092	0.616391	2.830000	0.249724	0.180439	60.722514
22.921786	0.002397	0.058723	0.058772	84.185285	15.949293	1.339124	107.509713	107.509713	107.509713	2.710618	0.649087	2.830000	0.244861	0.177437	60.815198
23.251963	0.002467	0.059567	0.059618	84.323930	16.221968	1.322317	107.190944	107.190944	107.190944	2.653372	0.683391	2.830000	0.240114	0.174455	60.899035
23.586897	0.002538	0.060422	0.060476	84.462158	16.502313	1.305659	106.874413	106.874413	106.874413	2.597336	0.719370	2.830000	0.235482	0.171491	60.973755
23.926655	0.002612	0.061290	0.061346	84.599976	16.790620	1.289151	106.560103	106.560103	106.560103	2.542496	0.757093	2.830000	0.230963	0.168546	61.039073
24.271307	0.002688	0.062171	0.062229	84.737391	17.087200	1.272792	106.247995	106.247995	106.247995	2.488834	0.796632	2.830000	0.226556	0.165621	61.094691
24.620924	0.002765	0.063063	0.063124	84.874411	17.392379	1.256585	105.938073	105.938073	105.938073	2.436333	0.838058	2.830000	0.222260	0.162715	61.140290
24.975577	0.002846	0.063969	0.064032	85.011043	17.706497	1.240529	105.630315	105.630315	105.630315	2.384976	0.881447	2.830000	0.218073	0.159828	61.175533
25.335338	0.002928	0.064888	0.064954	85.147292	18.029916	1.224625	105.324703	105.324703	105.324703	2.334746	0.926873	2.830000	0.213995	0.156961	61.200062
25.700282	0.003013	0.065819	0.065888	85.283166	18.363016	1.208872	105.021214	105.021214	105.021214	2.285625	0.974413	2.830000	0.210023	0.154114	61.213498
26.070482	0.003100	0.066764	0.066836	85.418672	18.706195	1.193273	104.719827	104.719827	104.719827	2.237595	1.024146	2.830000	0.206158	0.151287	61.215439
26.446016	0.003190	0.067723	0.067798	85.553815	19.059876	1.177826	104.420519	104.420519	104.420519	2.190639	1.076151	2.830000	0.202396	0.148479	61.205455
26.826958	0.003283	0.068695	0.068773	85.688601	19.424503	1.162531	104.123265	104.123265	104.123265	2.144739	1.130507	2.830000	0.198738	0.145692	61.183090
27.213388	0.003378	0.069681	0.069763	85.823037	19.800542	1.147390	103.828043	103.828043	103.828043	2.099877	1.187296	2.830000	0.195182	0.142925	61.147858
27.605384	0.003476	0.070681	0.070766	85.957129	20.188488	1.132401	103.534826	103.534826	103.534826	2.056035	1.246599	2.830000	0.191726	0.140179	61.099242
28.003026	0.003576	0.071695	0.071784	86.090882	20.588861	1.117565	103.243590	103.243590	103.243590	2.013196	1.308497	2.830000	0.188369	0.137453	61.036690
28.406397	0.003680	0.072724	0.072817	86.224301	21.002208	1.102882	102.954308	102.954308	102.954308	1.971340	1.373073	2.830000	0.185110	0.134748	60.959611
28.815578	0.003787	0.073767	0.073864	86.357393	21.429109	1.088351	102.666952	102.666952	102.666952	1.930450	1.440407	2.830000	0.181949	0.132063	60.867377
29.230652	0.003896	0.074825	0.074927	86.490162	21.870172	1.073972	102.381496	102.381496	102.381496	1.890509	1.510580	2.830000	0.178882	0.129400	60.759315
29.651706	0.004009	0.075899	0.076005	86.622613	22.326041	1.059745	102.097911	102.097911	102.097911	1.851499	1.583673	2.830000	0.175910	0.126758	60.634705
30.078825	0.004126	0.076987	0.077098	86.754752	22.797391	1.045670	101.816169	101.816169	101.816169	1.813401	1.659764	2.830000	0.173031	0.124137	60.492778
30.512097	0.004245	0.078091	0.078206	86.886583	23.284937	1.031745	101.536241	101.536241	101.536241	1.776198	1.738931	2.830000	0.170243	0.121538	60.332708
30.951609	0.004368	0.079211	0.079331	87.018110	23.789429	1.017971	101.258097	101.258097	101.258097	1.739873	1.821250	2.830000	0.167547	0.118960	60.153613
31.397452	0.004495	0.080346	0.080472	87.149339	24.311657	1.004347	100.981707	100.981707	100.981707	1.704407	1.906794	2.830000	0.164939	0.116405	59.954546
31.849718	0.004625	0.081498	0.081629	87.280273	24.852452	0.990872	100.707041	100.707041	100.707041	1.669785	1.995633	2.830000	0.162421	0.113872	59.734491
32.308498	0.004759	0.082666	0.082803	87.410916	25.412686	0.977545	100.434069	100.434069	100.434069	1.635987	2.087836	2.830000	0.159989	0.111362	59.492358
32.773887	0.004897	0.083851	0.083993	87.541273	25.993273	0.964367	100.162758	100.162758	100.162758	1.602998	2.183467	2.830000	0.157643	0.108874	59.226978
33.245979	0.005039	0.085052	0.085201	87.671347	26.595172	0.951336	99.893079	99.893079	99.893079	1.570801	2.282586	2.830000	0.155382	0.106410	58.937094
33.724872	0.005185	0.086270	0.086426	87.801142	27.219382	0.938452	99.624998	99.624998	99.624998	1.539378	2.385248	2.830000	0.153206	0.103970	58.621356
34.210663	0.005335	0.087506	0.087668	87.930661	27.866946	0.925713	99.358485	99.358485	99.358485	1.508714	2.491504	2.830000	0.151112	0.101554	58.278314
34.703452	0.005489	0.088759	0.088929	88.059908	28.538949	0.913120	99.093506	99.093506	99.093506	1.478791	2.601401	2.830000	0.149100	0.099163	57.906409
35.203338	0.005648	0.090030	0.090207	88.188886	29.236512	0.900670	98.830029	98.830029	98.830029	1.449593	2.714978	2.830000	0.147169	0.096797	57.503965
35.710426	0.005812	0.091319	0.091504	88.317598	29.960794	0.888364	98.568022	98.568022	98.568022	1.421105	2.832268	2.830000	0.145318	0.094457	57.069180
36.224818	0.005980	0.092626	0.092819	88.446046	30.712980	0.876200	98.307452	98.307452	98.307452	1.393311	2.953298	2.830000	0.143546	0.092143	56.600120
36.746619	0.006153	0.093951	0.094153	88.574234	31.494277	0.864177	98.048285	98.048285	98.048285	1.366194	3.078088	2.830000	0.141852	0.089858	56.094704
37.275937	0.006331	0.095296	0.095506	88.702164	32.305906	0.852295	97.790489	97.790489	97.790489	1.339741	3.206649	2.830000	0.140236	0.087600	55.550698
37.812880	0.006515	0.096659	0.096878	88.829838	33.149084	0.840552	97.534030	97.534030	97.534030	1.313934	3.338985	2.830000	0.138696	0.085372	54.965707
38.357556	0.006703	0.098041	0.098270	88.957258	34.025009	0.828947	97.278874	97.278874	97.278874	1.288760	3.475092	2.830000	0.137232	0.083174	54.337162
38.910079	0.006897	0.099443	0.099682	89.084428	34.934838	0.817480	97.024988	97.024988	97.024988	1.264204	3.614956	2.830000	0.135842	0.081008	53.662313
39.470560	0.007097	0.100865	0.101114	89.211347	35.879660	0.806149	96.772339	96.772339	96.772339	1.240250	3.758554	2.830000	0.134527	0.078875	52.938220
40.039115	0.007302	0.102306	0.102567	89.338019	36.860459	0.794953	96.520893	96.520893	96.520893	1.216885	3.905854	2.830000	0.133285	0.076776	52.161748
40.615860	0.007514	0.103768	0.104040	89.464445	37.878074	0.783891	96.270615	96.270615	96.270615	1.194095	4.056814	2.830000	0.132115	0.074713	51.329565
41.200912	0.007731	0.105251	0.105534	89.590625	38.933142	0.772962	96.021474	96.021474	96.021474	1.171865	4.211383	2.830000	0.131018	0.072689	50.438135
41.794392	0.007955	0.106754	0.107050	89.716563	40.026039	0.762165	95.773434	95.773434	95.773434	1.150182	4.369499	2.830000	0.129993	0.070704	49.483729
42.396421	0.008185	0.108278	0.108587	89.842258	41.156799	0.751499	95.526462	95.526462	95.526462	1.129033	4.531089	2.830000	0.129038	0.068761	48.462429
43.007121	0.008422	0.109824	0.110147	89.967711	42.325024	0.740962	95.280525	95.280525	95.280525	1.108404	4.696072	2.830000	0.128154	0.066864	47.370148
43.626619	0.008666	0.111392	0.111728	90.092924	43.529776	0.730553	95.035589	95.035589	95.035589	1.088283	4.864356	2.830000	0.127339	0.065013	46.202655
44.255040	0.008916	0.112981	0.113332	90.217897	44.769451	0.720272	94.791620	94.791620	94.791620	1.068655	5.035838	2.830000	0.126594	0.063213	44.955617
44.892513	0.009174	0.114593	0.114959	90.342630	46.041637	0.710116	94.548586	94.548586	94.548586	1.049510	5.210407	2.830000	0.125917	0.061466	43.624650
45.539168	0.009440	0.116227	0.116609	90.467124	47.342956	0.700086	94.306453	94.306453	94.306453	1.030834	5.387939	2.830000	0.125310	0.059777	42.205394
46.195138	0.009713	0.117883	0.118283	90.591379	48.668893	0.690178	94.065188	94.065188	94.065188	1.012616	5.568305	2.830000	0.124770	0.058148	40.693604
46.860558	0.009994	0.119564	0.119980	90.715396	50.013612	0.680394	93.824758	93.824758	93.824758	0.994844	5.751364	2.830000	0.124298	0.056585	39.085273
47.535562	0.010283	0.121267	0.121702	90.839173	51.369780	0.670730	93.585130	93.585130	93.585130	0.977505	5.936968	2.830000	0.123893	0.055091	37.376774
48.220290	0.010580	0.122994	0.123448	90.962710	52.728405	0.661187	93.346272	93.346272	93.346272	0.960589	6.124959	2.830000	0.123556	0.053671	35.565036
48.914880	0.010886	0.124745	0.125219	91.086008	54.078697	0.651762	93.108152	93.108152	93.108152	0.944085	6.315173	2.830000	0.123285	0.052331	33.647747
49.619476	0.011201	0.126521	0.127016	91.209066	55.407995	0.642454	92.870737	92.870737	92.870737	0.927980	6.507440	2.830000	0.123081	0.051076	31.623586
50.334221	0.011524	0.128321	0.128837	91.331882	56.701774	0.633263	92.633995	92.633995	92.633995	0.912265	6.701581	2.830000	0.122943	0.049910	29.492466
51.059262	0.011857	0.130146	0.130685	91.454456	57.943756	0.624187	92.397896	92.397896	92.397896	0.896929	6.897413	2.830000	0.122872	0.048840	27.255794
51.794747	0.012200	0.131996	0.132559	91.576787	59.116176	0.615225	92.162407	92.162407	92.162407	0.881961	7.094748	2.830000	0.122867	0.047872	24.916721
52.540826	0.012553	0.133872	0.134459	91.698873	60.200200	0.606376	91.927497	91.927497	91.927497	0.867351	7.293395	2.830000	0.122928	0.047010	22.480356
53.297652	0.012915	0.135774	0.136387	91.820714	61.176522	0.597638	91.693137	91.693137	91.693137	0.853090	7.493158	2.830000	0.123055	0.046260	19.953934
54.065379	0.013288	0.137702	0.138342	91.942307	62.026122	0.589010	91.459295	91.459295	91.459295	0.839167	7.693840	2.830000	0.123249	0.045626	17.346898
54.844166	0.013672	0.139657	0.140324	92.063651	62.731155	0.580491	91.225941	91.225941	91.225941	0.825573	7.895240	2.830000	0.123508	0.045113	14.670871
55.634170	0.014067	0.141638	0.142335	92.184744	63.275898	0.572080	90.993047	90.993047	90.993047	0.812299	8.097159	2.830000	0.123833	0.044725	11.939505
56.435554	0.014473	0.143647	0.144374	92.305585	63.647683	0.563775	90.760582	90.760582	90.760582	0.799335	8.299396	2.830000	0.124224	0.044464	9.168195
57.248482	0.014891	0.145683	0.146443	92.426170	63.837708	0.555576	90.528519	90.528519	90.528519	0.786672	8.501753	2.830000	0.124682	0.044331	6.373663
58.073119	0.015321	0.147748	0.148540	92.546498	63.841625	0.547481	90.296828	90.296828	90.296828	0.774301	8.704031	2.830000	0.125206	0.044328	3.573441
58.909635	0.015763	0.149840	0.150667	92.666566	63.659842	0.539489	90.065482	90.065482	90.065482	0.762214	8.906035	2.830000	0.125796	0.044455	0.785280
59.758201	0.016218	0.151961	0.152824	92.786371	63.297485	0.531598	89.834454	89.834454	89.834454	0.750403	9.107574	2.830000	0.126453	0.044710	-1.973450
60.618990	0.016686	0.154111	0.155012	92.905911	62.764037	0.523808	89.603716	89.603716	89.603716	0.738858	9.308459	2.830000	0.127177	0.045090	-4.686336
61.492178	0.017167	0.156290	0.157230	93.025182	62.072694	0.516118	89.373243	89.373243	89.373243	0.727573	9.508506	2.830000	0.127968	0.045592	-7.338414
62.377944	0.017662	0.158499	0.159480	93.144183	61.239525	0.508525	89.143008	89.143008	89.143008	0.716538	9.707537	2.830000	0.128826	0.046212	-9.916555
63.276469	0.018172	0.160738	0.161762	93.262908	60.282533	0.501030	88.912986	88.912986	88.912986	0.705746	9.905379	2.830000	0.129752	0.046946	-12.409712
64.187937	0.018696	0.163007	0.164076	93.381355	59.220718	0.493631	88.683153	88.683153	88.683153	0.695190	10.101867	2.830000	0.130746	0.047787	-14.809038
65.112534	0.019235	0.165307	0.166423	93.499521	58.073212	0.486326	88.453485	88.453485	88.453485	0.684862	10.296839	2.830000	0.131808	0.048732	-17.107882
66.050449	0.019789	0.167638	0.168802	93.617400	56.858562	0.479115	88.223958	88.223958	88.223958	0.674755	10.490144	2.830000	0.132939	0.049773	-19.301681
67.001875	0.020360	0.170000	0.171215	93.734991	55.594169	0.471997	87.994550	87.994550	87.994550	0.664861	10.681637	2.830000	0.134139	0.050905	-21.387778
67.967006	0.020946	0.172394	0.173662	93.852288	54.295904	0.464970	87.765239	87.765239	87.765239	0.655174	10.871180	2.830000	0.135409	0.052122	-23.365197
68.946038	0.021550	0.174820	0.176144	93.969287	52.977877	0.458033	87.536004	87.536004	87.536004	0.645687	11.058644	2.830000	0.136748	0.053419	-25.234384
69.939174	0.022170	0.177279	0.178660	94.085984	51.652350	0.451185	87.306823	87.306823	87.306823	0.636393	11.243909	2.830000	0.138158	0.054789	-26.996956
70.946615	0.022809	0.179770	0.181211	94.202374	50.329742	0.444425	87.077678	87.077678	87.077678	0.627285	11.426861	2.830000	0.139638	0.056229	-28.655456
71.968567	0.023465	0.182295	0.183799	94.318453	49.018721	0.437752	86.848550	86.848550	86.848550	0.618358	11.607397	2.830000	0.141190	0.057733	-30.213128
73.005241	0.024141	0.184853	0.186423	94.434215	47.726340	0.431165	86.619420	86.619420	86.619420	0.609604	11.785420	2.830000	0.142814	0.059296	-31.673726
74.056847	0.024835	0.187445	0.189083	94.549656	46.458205	0.424663	86.390272	86.390272	86.390272	0.601018	11.960844	2.830000	0.144510	0.060915	-33.041341
75.123601	0.025550	0.190071	0.191781	94.664771	45.218647	0.418245	86.161089	86.161089	86.161089	0.592594	12.133589	2.830000	0.146279	0.062585	-34.320269
76.205721	0.026284	0.192732	0.194516	94.779554	44.010903	0.411909	85.931856	85.931856	85.931856	0.584325	12.303585	2.830000	0.148121	0.064302	-35.514893
77.303429	0.027040	0.195428	0.197290	94.893999	42.837282	0.405655	85.702558	85.702558	85.702558	0.576207	12.470769	2.830000	0.150038	0.066064	-36.629601
78.416948	0.027817	0.198159	0.200102	95.008102	41.699317	0.399482	85.473182	85.473182	85.473182	0.568234	12.635087	2.830000	0.152029	0.067867	-37.668713
79.546508	0.028617	0.200926	0.202953	95.121855	40.597902	0.393388	85.243717	85.243717	85.243717	0.560399	12.796491	2.830000	0.154095	0.069708	-38.636436
80.692338	0.029439	0.203729	0.205845	95.235254	39.533416	0.387373	85.014149	85.014149	85.014149	0.552698	12.954942	2.830000	0.156237	0.071585	-39.536827
81.854673	0.030284	0.206568	0.208776	95.348292	38.505821	0.381436	84.784470	84.784470	84.784470	0.545126	13.110407	2.830000	0.158456	0.073495	-40.373765
83.033751	0.031154	0.209444	0.211749	95.460963	37.514753	0.375575	84.554671	84.554671	84.554671	0.537677	13.262862	2.830000	0.160751	0.075437	-41.150944
84.229813	0.032048	0.212357	0.214762	95.573260	36.559597	0.369791	84.324742	84.324742	84.324742	0.530347	13.412288	2.830000	0.163124	0.077408	-41.871858
85.443104	0.032968	0.215308	0.217817	95.685177	35.639545	0.364080	84.094679	84.094679	84.094679	0.523130	13.558671	2.830000	0.165575	0.079406	-42.539802
86.673872	0.033913	0.218297	0.220915	95.796707	34.753649	0.358444	83.864475	83.864475	83.864475	0.516023	13.702007	2.830000	0.168105	0.081430	-43.157872
87.922369	0.034886	0.221323	0.224056	95.907844	33.900861	0.352881	83.634125	83.634125	83.634125	0.509019	13.842293	2.830000	0.170715	0.083479	-43.728973
89.188849	0.035886	0.224388	0.227240	96.018580	33.080067	0.347389	83.403628	83.403628	83.403628	0.502115	13.979535	2.830000	0.173404	0.085550	-44.255823
90.473572	0.036914	0.227492	0.230468	96.128908	32.290111	0.341969	83.172982	83.172982	83.172982	0.495306	14.113743	2.830000	0.176174	0.087643	-44.740961
91.776802	0.037972	0.230635	0.233740	96.238821	31.529822	0.336619	82.942186	82.942186	82.942186	0.488588	14.244930	2.830000	0.179026	0.089756	-45.186756
93.098803	0.039059	0.233818	0.237058	96.348311	30.798024	0.331338	82.711242	82.711242	82.711242	0.481957	14.373115	2.830000	0.181959	0.091889	-45.595421
94.439848	0.040177	0.237040	0.240421	96.457371	30.093552	0.326126	82.480152	82.480152	82.480152	0.475409	14.498321	2.830000	0.184975	0.094040	-45.969014
95.800210	0.041326	0.240303	0.243830	96.565994	29.415261	0.320981	82.248921	82.248921	82.248921	0.468939	14.620575	2.830000	0.188074	0.096209	-46.309455
97.180167	0.042508	0.243606	0.247287	96.674171	28.762034	0.315903	82.017555	82.017555	82.017555	0.462544	14.739907	2.830000	0.191257	0.098394	-46.618533
98.580001	0.043724	0.246949	0.250790	96.781894	28.132789	0.310891	81.786060	81.786060	81.786060	0.456221	14.856348	2.830000	0.194523	0.100594	-46.897915
100.000000	0.044973	0.250334	0.254341	96.889156	27.526476	0.305944	81.554446	81.554446	81.554446	0.449964	14.969936	2.830000	0.197875	0.102810	-47.149152
101.440453	0.046257	0.253760	0.257941	96.995948	26.942089	0.301062	81.322723	81.322723	81.322723	0.443772	15.080708	2.830000	0.201311	0.105040	-47.373691
102.901655	0.047578	0.257227	0.261590	97.102263	26.378659	0.296243	81.090904	81.090904	81.090904	0.437640	15.188706	2.830000	0.204833	0.107284	-47.572882
104.383905	0.048936	0.260737	0.265289	97.208090	25.835259	0.291486	80.859003	80.859003	80.859003	0.431564	15.293971	2.830000	0.208441	0.109540	-47.747984
105.887506	0.050331	0.264288	0.269038	97.313423	25.311004	0.286792	80.627034	80.627034	80.627034	0.425543	15.396549	2.830000	0.212135	0.111809	-47.900171
107.412766	0.051766	0.267882	0.272838	97.418253	24.805048	0.282159	80.395017	80.395017	80.395017	0.419572	15.496485	2.830000	0.215917	0.114090	-48.030540
108.959997	0.053241	0.271518	0.276689	97.522570	24.316587	0.277586	80.162970	80.162970	80.162970	0.413649	15.593827	2.830000	0.219785	0.116381	-48.140117
110.529514	0.054757	0.275197	0.280592	97.626367	23.844853	0.273073	79.930914	79.930914	79.930914	0.407770	15.688623	2.830000	0.223741	0.118684	-48.229860
112.121640	0.056316	0.278919	0.284548	97.729634	23.389119	0.268619	79.698873	79.698873	79.698873	0.401933	15.780922	2.830000	0.227785	0.120996	-48.300669
113.736699	0.057918	0.282685	0.288557	97.832362	22.948691	0.264224	79.466872	79.466872	79.466872	0.396135	15.870775	2.830000	0.231917	0.123319	-48.353383
115.375023	0.059564	0.286494	0.292620	97.934542	22.522912	0.259886	79.234938	79.234938	79.234938	0.390374	15.958232	2.830000	0.236137	0.125650	-48.388791
117.036946	0.061257	0.290346	0.296737	98.036166	22.111156	0.255605	79.003099	79.003099	79.003099	0.384646	16.043345	2.830000	0.240445	0.127990	-48.407634
118.722808	0.062996	0.294242	0.300910	98.137224	21.712831	0.251380	78.771388	78.771388	78.771388	0.378949	16.126165	2.830000	0.244842	0.130338	-48.410607
120.432955	0.064784	0.298182	0.305138	98.237707	21.327373	0.247211	78.539838	78.539838	78.539838	0.373281	16.206743	2.830000	0.249327	0.132693	-48.398364
122.167735	0.066621	0.302165	0.309422	98.337605	20.954249	0.243097	78.308483	78.308483	78.308483	0.367640	16.285132	2.830000	0.253901	0.135056	-48.371520
123.927504	0.068509	0.306193	0.313764	98.436910	20.592951	0.239037	78.077362	78.077362	78.077362	0.362023	16.361383	2.830000	0.258562	0.137426	-48.330656
125.712621	0.070449	0.310265	0.318162	98.535613	20.242997	0.235031	77.846513	77.846513	77.846513	0.356429	16.435547	2.830000	0.263313	0.139801	-48.276319
127.523453	0.072442	0.314381	0.322619	98.633703	19.903932	0.231079	77.615979	77.615979	77.615979	0.350856	16.507675	2.830000	0.268151	0.142183	-48.209026
129.360368	0.074491	0.318541	0.327135	98.731172	19.575321	0.227178	77.385804	77.385804	77.385804	0.345300	16.577818	2.830000	0.273076	0.144570	-48.129266
131.223743	0.076596	0.322745	0.331710	98.828010	19.256753	0.223330	77.156034	77.156034	77.156034	0.339762	16.646027	2.830000	0.278090	0.146961	-48.037501
133.113960	0.078758	0.326994	0.336345	98.924209	18.947836	0.219533	76.926718	76.926718	76.926718	0.334239	16.712351	2.830000	0.283190	0.149357	-47.934171
135.031404	0.080980	0.331286	0.341040	99.019758	18.648199	0.215787	76.697907	76.697907	76.697907	0.328729	16.776840	2.830000	0.288377	0.151757	-47.819692
136.976468	0.083263	0.335623	0.345796	99.114648	18.357488	0.212091	76.469653	76.469653	76.469653	0.323232	16.839541	2.830000	0.293649	0.154161	-47.694459
138.949549	0.085608	0.340003	0.350615	99.208871	18.075367	0.208444	76.242012	76.242012	76.242012	0.317745	16.900504	2.830000	0.299007	0.156567	-47.558849
140.951052	0.088017	0.344427	0.355495	99.302417	17.801517	0.204847	76.015042	76.015042	76.015042	0.312268	16.959775	2.830000	0.304450	0.158975	-47.413220
142.981386	0.090491	0.348895	0.360439	99.395276	17.535634	0.201299	75.788803	75.788803	75.788803	0.306799	17.017401	2.830000	0.309977	0.161386	-47.257916
145.040966	0.093033	0.353406	0.365446	99.487441	17.277430	0.197799	75.563357	75.563357	75.563357	0.301337	17.073427	2.830000	0.315586	0.163798	-47.093262
147.130213	0.095644	0.357960	0.370517	99.578901	17.026627	0.194346	75.338770	75.338770	75.338770	0.295882	17.127899	2.830000	0.321278	0.166210	-46.919571
149.249555	0.098325	0.362557	0.375653	99.669649	16.782965	0.190941	75.115107	75.115107	75.115107	0.290431	17.180861	2.830000	0.327050	0.168623	-46.737144
151.399424	0.101078	0.367196	0.380854	99.759674	16.546192	0.187582	74.892440	74.892440	74.892440	0.284986	17.232355	2.830000	0.332903	0.171036	-46.546267
153.580262	0.103906	0.371878	0.386121	99.848969	16.316071	0.184269	74.670838	74.670838	74.670838	0.279544	17.282425	2.830000	0.338834	0.173449	-46.347216
155.792513	0.106810	0.376601	0.391455	99.937525	16.092374	0.181003	74.450378	74.450378	74.450378	0.274105	17.331112	2.830000	0.344842	0.175860	-46.140257
158.036631	0.109791	0.381365	0.396855	100.025333	15.874885	0.177781	74.231134	74.231134	74.231134	0.268669	17.378457	2.830000	0.350927	0.178269	-45.925645
160.313075	0.112852	0.386171	0.402323	100.112385	15.663395	0.174604	74.013186	74.013186	74.013186	0.263236	17.424500	2.830000	0.357086	0.180676	-45.703627
162.622309	0.115995	0.391016	0.407858	100.198673	15.457707	0.171472	73.796615	73.796615	73.796615	0.257804	17.469279	2.830000	0.363318	0.183080	-45.474441
164.964807	0.119222	0.395901	0.413463	100.284188	15.257632	0.168384	73.581504	73.581504	73.581504	0.252375	17.512834	2.830000	0.369621	0.185481	-45.238317
167.341048	0.122534	0.400825	0.419136	100.368924	15.062989	0.165339	73.367938	73.367938	73.367938	0.246947	17.555200	2.830000	0.375994	0.187878	-44.995478
169.751517	0.125934	0.405786	0.424879	100.452872	14.873605	0.162338	73.156006	73.156006	73.156006	0.241520	17.596415	2.830000	0.382435	0.190270	-44.746140
172.196708	0.129423	0.410786	0.430691	100.536025	14.689314	0.159379	72.945796	72.945796	72.945796	0.236096	17.636515	2.830000	0.388941	0.192657	-44.490513
174.677121	0.133004	0.415821	0.436575	100.618375	14.509959	0.156463	72.737402	72.737402	72.737402	0.230673	17.675534	2.830000	0.395512	0.195038	-44.228801
177.193263	0.136679	0.420893	0.442529	100.699915	14.335386	0.153588	72.530917	72.530917	72.530917	0.225252	17.713506	2.830000	0.402144	0.197414	-43.961202
179.745648	0.140450	0.425999	0.448554	100.780639	14.165451	0.150755	72.326437	72.326437	72.326437	0.219834	17.750464	2.830000	0.408835	0.199782	-43.687908
182.334800	0.144319	0.431138	0.454652	100.860541	14.000014	0.147964	72.124061	72.124061	72.124061	0.214419	17.786442	2.830000	0.415585	0.202143	-43.409109
184.961247	0.148289	0.436310	0.460821	100.939612	13.838941	0.145213	71.923888	71.923888	71.923888	0.209007	17.821469	2.830000	0.422389	0.204495	-43.124988
187.625527	0.152362	0.441513	0.467063	101.017848	13.682103	0.142503	71.726022	71.726022	71.726022	0.203598	17.855578	2.830000	0.429245	0.206840	-42.835724
190.328185	0.156539	0.446746	0.473378	101.095243	13.529378	0.139832	71.530565	71.530565	71.530565	0.198195	17.888798	2.830000	0.436152	0.209174	-42.541493
193.069773	0.160824	0.452008	0.479766	101.171791	13.380646	0.137202	71.337623	71.337623	71.337623	0.192796	17.921159	2.830000	0.443106	0.211500	-42.242467
195.850852	0.165218	0.457296	0.486227	101.247486	13.235793	0.134611	71.147304	71.147304	71.147304	0.187404	17.952689	2.830000	0.450105	0.213814	-41.938815
198.671992	0.169725	0.462611	0.492763	101.322325	13.094710	0.132059	70.959717	70.959717	70.959717	0.182018	17.983417	2.830000	0.457146	0.216118	-41.630700
201.533769	0.174345	0.467949	0.499372	101.396301	12.957291	0.129546	70.774972	70.774972	70.774972	0.176640	18.013369	2.830000	0.464226	0.218410	-41.318284
204.436768	0.179083	0.473309	0.506056	101.469410	12.823436	0.127071	70.593182	70.593182	70.593182	0.171271	18.042573	2.830000	0.471343	0.220690	-41.001727
207.381584	0.183939	0.478690	0.512814	101.541650	12.693045	0.124634	70.414461	70.414461	70.414461	0.165912	18.071054	2.830000	0.478493	0.222957	-40.681184
210.368818	0.188918	0.484089	0.519646	101.613014	12.566025	0.122234	70.238922	70.238922	70.238922	0.160564	18.098837	2.830000	0.485674	0.225210	-40.356809
213.399082	0.194020	0.489505	0.526553	101.683501	12.442284	0.119873	70.066683	70.066683	70.066683	0.155228	18.125949	2.830000	0.492883	0.227450	-40.028751
216.472995	0.199249	0.494934	0.533535	101.753107	12.321736	0.117548	69.897860	69.897860	69.897860	0.149905	18.152411	2.830000	0.500116	0.229675	-39.697158
219.591187	0.204606	0.500376	0.540592	101.821830	12.204296	0.115260	69.732572	69.732572	69.732572	0.144597	18.178250	2.830000	0.507371	0.231886	-39.362177
222.754295	0.210095	0.505827	0.547724	101.889666	12.089882	0.113008	69.570939	69.570939	69.570939	0.139305	18.203486	2.830000	0.514643	0.234080	-39.023949
225.962966	0.215719	0.511285	0.554930	101.956613	11.978415	0.110792	69.413080	69.413080	69.413080	0.134030	18.228144	2.830000	0.521931	0.236258	-38.682616
229.217857	0.221478	0.516748	0.562211	102.022671	11.869819	0.108613	69.259118	69.259118	69.259118	0.128774	18.252245	2.830000	0.529231	0.238420	-38.338317
232.519632	0.227377	0.522212	0.569566	102.087837	11.764021	0.106468	69.109173	69.109173	69.109173	0.123539	18.275810	2.830000	0.536539	0.240564	-37.991187
235.868968	0.233416	0.527675	0.576996	102.152110	11.660950	0.104359	68.963368	68.963368	68.963368	0.118325	18.298861	2.830000	0.543853	0.242690	-37.641361
239.266550	0.239600	0.533134	0.584500	102.215490	11.560536	0.102284	68.821826	68.821826	68.821826	0.113134	18.321419	2.830000	0.551168	0.244798	-37.288971
242.713072	0.245930	0.538585	0.592077	102.277976	11.462714	0.100244	68.684670	68.684670	68.684670	0.107968	18.343503	2.830000	0.558483	0.246887	-36.934146
246.209240	0.252409	0.544026	0.599728	102.339569	11.367418	0.098239	68.552024	68.552024	68.552024	0.102829	18.365133	2.830000	0.565792	0.248957	-36.577014
249.755769	0.259039	0.549452	0.607452	102.400268	11.274587	0.096267	68.424011	68.424011	68.424011	0.097717	18.386329	2.830000	0.573094	0.251007	-36.217702
253.353383	0.265822	0.554860	0.615249	102.460075	11.184160	0.094328	68.300755	68.300755	68.300755	0.092635	18.407110	2.830000	0.580385	0.253036	-35.856332
257.002820	0.272762	0.560246	0.623117	102.518990	11.096078	0.092423	68.182380	68.182380	68.182380	0.087585	18.427494	2.830000	0.587661	0.255045	-35.493027
260.704825	0.279859	0.565607	0.631056	102.577015	11.010285	0.090551	68.069009	68.069009	68.069009	0.082567	18.447500	2.830000	0.594920	0.257032	-35.127905
264.460155	0.287117	0.570938	0.639067	102.634152	10.926726	0.088711	67.960766	67.960766	67.960766	0.077584	18.467146	2.830000	0.602157	0.258998	-34.761084
268.269580	0.294537	0.576235	0.647146	102.690402	10.845347	0.086904	67.857773	67.857773	67.857773	0.072637	18.486449	2.830000	0.609370	0.260941	-34.392679
272.133877	0.302123	0.581493	0.655295	102.745769	10.766097	0.085128	67.760152	67.760152	67.760152	0.067727	18.505427	2.830000	0.616555	0.262862	-34.022804
276.053838	0.309875	0.586708	0.663512	102.800255	10.688925	0.083385	67.668025	67.668025	67.668025	0.062858	18.524097	2.830000	0.623710	0.264760	-33.651569
280.030263	0.317796	0.591874	0.671796	102.853863	10.613783	0.081672	67.581513	67.581513	67.581513	0.058029	18.542476	2.830000	0.630831	0.266634	-33.279083
284.063968	0.325887	0.596988	0.680145	102.906597	10.540624	0.079991	67.500735	67.500735	67.500735	0.053243	18.560580	2.830000	0.637915	0.268485	-32.905453
288.155776	0.334151	0.602044	0.688559	102.958460	10.469402	0.078340	67.425811	67.425811	67.425811	0.048502	18.578426	2.830000	0.644958	0.270312	-32.530783
292.306525	0.342590	0.607035	0.697036	103.009457	10.400071	0.076720	67.356859	67.356859	67.356859	0.043807	18.596030	2.830000	0.651958	0.272114	-32.155176
296.517063	0.351204	0.611958	0.705575	103.059592	10.332590	0.075130	67.293994	67.293994	67.293994	0.039159	18.613409	2.830000	0.658912	0.273891	-31.778731
300.788252	0.359995	0.616805	0.714175	103.108870	10.266915	0.073569	67.237332	67.237332	67.237332	0.034561	18.630577	2.830000	0.665817	0.275643	-31.401548
305.120965	0.368965	0.621572	0.722833	103.157296	10.203006	0.072038	67.186987	67.186987	67.186987	0.030013	18.647551	2.830000	0.672670	0.277369	-31.023720
309.516090	0.378115	0.626251	0.731547	103.204876	10.140824	0.070536	67.143071	67.143071	67.143071	0.025518	18.664346	2.830000	0.679468	0.279070	-30.645342
313.974523	0.387446	0.630836	0.740317	103.251614	10.080330	0.069062	67.105693	67.105693	67.105693	0.021077	18.680977	2.830000	0.686209	0.280745	-30.266505
318.497179	0.396958	0.635322	0.749139	103.297517	10.021487	0.067617	67.074963	67.074963	67.074963	0.016691	18.697461	2.830000	0.692889	0.282393	-29.887297
323.084981	0.406653	0.639700	0.758012	103.342591	9.964258	0.066200	67.050986	67.050986	67.050986	0.012363	18.713812	2.830000	0.699506	0.284015	-29.507804
327.738869	0.416531	0.643964	0.766934	103.386842	9.908608	0.064811	67.033867	67.033867	67.033867	0.008093	18.730046	2.830000	0.706057	0.285610	-29.128111
332.459793	0.426591	0.648107	0.775901	103.430278	9.854503	0.063450	67.023708	67.023708	67.023708	0.003883	18.746177	2.830000	0.712540	0.287178	-28.748300
337.248720	0.436835	0.652122	0.784912	103.472905	9.801910	0.062115	67.020608	67.020608	67.020608	-0.000266	18.762221	2.830000	0.718953	0.288719	-28.368449
342.106630	0.447262	0.656000	0.793964	103.514729	9.750796	0.060807	67.024665	67.024665	67.024665	-0.004352	18.778193	2.830000	0.725293	0.290233	-27.988636
347.034515	0.457871	0.659733	0.803053	103.555760	9.701131	0.059526	67.035972	67.035972	67.035972	-0.008375	18.794108	2.830000	0.731558	0.291719	-27.608935
352.033384	0.468662	0.663315	0.812177	103.596003	9.652883	0.058270	67.054622	67.054622	67.054622	-0.012331	18.809981	2.830000	0.737745	0.293177	-27.229419
357.104260	0.479634	0.666737	0.821332	103.635467	9.606023	0.057041	67.080702	67.080702	67.080702	-0.016221	18.825828	2.830000	0.743853	0.294607	-26.850157
362.248179	0.490785	0.669990	0.830516	103.674160	9.560524	0.055836	67.114299	67.114299	67.114299	-0.020043	18.841664	2.830000	0.749879	0.296009	-26.471218
367.466194	0.502114	0.673065	0.839723	103.712089	9.516356	0.054657	67.155494	67.155494	67.155494	-0.023796	18.857504	2.830000	0.755821	0.297383	-26.092665
372.759372	0.513619	0.675955	0.848952	103.749264	9.473493	0.053503	67.204367	67.204367	67.204367	-0.027479	18.873364	2.830000	0.761678	0.298728	-25.714561
378.128796	0.525297	0.678649	0.858197	103.785693	9.431910	0.052372	67.260993	67.260993	67.260993	-0.031090	18.889258	2.830000	0.767448	0.300045	-25.336969
383.575563	0.537146	0.681140	0.867454	103.821383	9.391581	0.051266	67.325444	67.325444	67.325444	-0.034628	18.905205	2.830000	0.773128	0.301334	-24.959944
389.100789	0.549162	0.683417	0.876719	103.856345	9.352482	0.050184	67.397787	67.397787	67.397787	-0.038092	18.921218	2.830000	0.778717	0.302593	-24.583544
394.705603	0.561342	0.685471	0.885988	103.890586	9.314589	0.049125	67.478086	67.478086	67.478086	-0.041481	18.937314	2.830000	0.784214	0.303824	-24.207822
400.391152	0.573682	0.687294	0.895256	103.924115	9.277880	0.048089	67.566401	67.566401	67.566401	-0.044794	18.953510	2.830000	0.789617	0.305027	-23.832828
406.158599	0.586177	0.688874	0.904517	103.956942	9.242332	0.047076	67.662786	67.662786	67.662786	-0.048030	18.969822	2.830000	0.794924	0.306200	-23.458613
412.009123	0.598823	0.690203	0.913767	103.989076	9.207926	0.046085	67.767294	67.767294	67.767294	-0.051188	18.986267	2.830000	0.800133	0.307344	-23.085224
417.943921	0.611613	0.691271	0.922999	104.020526	9.174639	0.045116	67.879968	67.879968	67.879968	-0.054266	19.002863	2.830000	0.805245	0.308459	-22.712705
423.964207	0.624543	0.692068	0.932208	104.051300	9.142453	0.044169	68.000851	68.000851	68.000851	-0.057264	19.019626	2.830000	0.810256	0.309545	-22.341098
430.071212	0.637605	0.692584	0.941389	104.081409	9.111350	0.043243	68.129977	68.129977	68.129977	-0.060182	19.036575	2.830000	0.815167	0.310602	-21.970446
436.266186	0.650793	0.692809	0.950534	104.110861	9.081310	0.042338	68.267377	68.267377	68.267377	-0.063016	19.053728	2.830000	0.819975	0.311629	-21.600786
442.550395	0.664098	0.692733	0.959638	104.139667	9.052318	0.041454	68.413076	68.413076	68.413076	-0.065768	19.071103	2.830000	0.824680	0.312627	-21.232156
448.925126	0.677513	0.692347	0.968694	104.167835	9.024356	0.040590	68.567093	68.567093	68.567093	-0.068436	19.088721	2.830000	0.829280	0.313596	-20.864591
455.391681	0.691027	0.691640	0.977694	104.195374	8.997409	0.039746	68.729439	68.729439	68.729439	-0.071019	19.106599	2.830000	0.833774	0.314535	-20.498124
461.951385	0.704633	0.690604	0.986631	104.222294	8.971461	0.038922	68.900120	68.900120	68.900120	-0.073515	19.124759	2.830000	0.838162	0.315445	-20.132788
468.605578	0.718319	0.689227	0.995498	104.248605	8.946500	0.038117	69.079137	69.079137	69.079137	-0.075925	19.143220	2.830000	0.842442	0.316325	-19.768611
475.355621	0.732075	0.687502	1.004287	104.274316	8.922511	0.037332	69.266481	69.266481	69.266481	-0.078247	19.162005	2.830000	0.846613	0.317175	-19.405623
482.202895	0.745889	0.685419	1.012990	104.299435	8.899483	0.036565	69.462138	69.462138	69.462138	-0.080480	19.181135	2.830000	0.850675	0.317996	-19.043852
489.148802	0.759748	0.682969	1.021598	104.323973	8.877403	0.035817	69.666084	69.666084	69.666084	-0.082623	19.200632	2.830000	0.854626	0.318787	-18.683324
496.194760	0.773640	0.680143	1.030103	104.347938	8.856260	0.035086	69.878288	69.878288	69.878288	-0.084675	19.220519	2.830000	0.858466	0.319548	-18.324063
503.342213	0.787550	0.676933	1.038496	104.371339	8.836045	0.034374	70.098713	70.098713	70.098713	-0.086636	19.240821	2.830000	0.862193	0.320279	-17.966094
510.592621	0.801465	0.673332	1.046767	104.394186	8.816749	0.033679	70.327308	70.327308	70.327308	-0.088504	19.261562	2.830000	0.865808	0.320980	-17.609441
517.947468	0.815368	0.669331	1.054907	104.416488	8.798362	0.033001	70.564018	70.564018	70.564018	-0.090278	19.282767	2.830000	0.869308	0.321651	-17.254125
525.408258	0.829244	0.664924	1.062906	104.438253	8.780877	0.032340	70.808775	70.808775	70.808775	-0.091957	19.304464	2.830000	0.872694	0.322291	-16.900170
532.976517	0.843076	0.660105	1.070754	104.459490	8.764288	0.031695	71.061502	71.061502	71.061502	-0.093540	19.326678	2.830000	0.875964	0.322901	-16.547597
540.653794	0.856846	0.654867	1.078441	104.480208	8.748589	0.031067	71.322111	71.322111	71.322111	-0.095026	19.349438	2.830000	0.879117	0.323481	-16.196428
548.441658	0.870536	0.649206	1.085956	104.500415	8.733774	0.030455	71.590502	71.590502	71.590502	-0.096414	19.372774	2.830000	0.882153	0.324029	-15.846685
556.341702	0.884126	0.643117	1.093288	104.520120	8.719841	0.029858	71.866566	71.866566	71.866566	-0.097703	19.396716	2.830000	0.885071	0.324547	-15.498391
564.355543	0.897597	0.636597	1.100426	104.539331	8.706786	0.029277	72.150180	72.150180	72.150180	-0.098891	19.421294	2.830000	0.887870	0.325034	-15.151568
572.484820	0.910928	0.629644	1.107358	104.558056	8.694606	0.028712	72.441206	72.441206	72.441206	-0.099977	19.446542	2.830000	0.890549	0.325489	-14.806242
580.731195	0.924099	0.622254	1.114073	104.576303	8.683301	0.028161	72.739495	72.739495	72.739495	-0.100960	19.472494	2.830000	0.893106	0.325913	-14.462436
589.096355	0.937086	0.614429	1.120559	104.594080	8.672871	0.027624	73.044884	73.044884	73.044884	-0.101838	19.499184	2.830000	0.895542	0.326305	-14.120179
597.582011	0.949868	0.606167	1.126804	104.611395	8.663316	0.027102	73.357194	73.357194	73.357194	-0.102611	19.526648	2.830000	0.897855	0.326665	-13.779500
606.189899	0.962421	0.597472	1.132796	104.628254	8.654639	0.026594	73.676229	73.676229	73.676229	-0.103276	19.554925	2.830000	0.900044	0.326992	-13.440429
614.921780	0.974722	0.588345	1.138522	104.644665	8.646842	0.026100	74.001778	74.001778	74.001778	-0.103832	19.584053	2.830000	0.902107	0.327287	-13.103001
623.779440	0.986746	0.578791	1.143969	104.660635	8.639931	0.025619	74.333614	74.333614	74.333614	-0.104277	19.614073	2.830000	0.904045	0.327549	-12.767254
632.764690	0.998468	0.568816	1.149126	104.676171	8.633909	0.025151	74.671488	74.671488	74.671488	-0.104610	19.645027	2.830000	0.905855	0.327777	-12.433230
641.879368	1.009865	0.558426	1.153979	104.691279	8.628784	0.024697	75.015135	75.015135	75.015135	-0.104829	19.676959	2.830000	0.907537	0.327972	-12.100974
651.125339	1.020910	0.547631	1.158515	104.705966	8.624564	0.024255	75.364269	75.364269	75.364269	-0.104933	19.709914	2.830000	0.909089	0.328133	-11.770538
660.504493	1.031578	0.536441	1.162722	104.720237	8.621256	0.023826	75.718583	75.718583	75.718583	-0.104918	19.743938	2.830000	0.910509	0.328258	-11.441978
670.018750	1.041844	0.524867	1.166586	104.734099	8.618872	0.023409	76.077746	76.077746	76.077746	-0.104784	19.779081	2.830000	0.911797	0.328349	-11.115358
679.670056	1.051682	0.512924	1.170096	104.747556	8.617423	0.023004	76.441407	76.441407	76.441407	-0.104529	19.815392	2.830000	0.912951	0.328404	-10.790749
689.460384	1.061066	0.500627	1.173238	104.760615	8.616922	0.022611	76.809189	76.809189	76.809189	-0.104150	19.852923	2.830000	0.913969	0.328424	-10.468230
699.391737	1.069972	0.487994	1.176001	104.773280	8.617382	0.022229	77.180689	77.180689	77.180689	-0.103646	19.891728	2.830000	0.914850	0.328406	-10.147891
709.466146	1.078374	0.475045	1.178371	104.785555	8.618820	0.021859	77.555479	77.555479	77.555479	-0.103013	19.931861	2.830000	0.915592	0.328351	-9.829829
719.685673	1.086249	0.461800	1.180338	104.797445	8.621250	0.021499	77.933102	77.933102	77.933102	-0.102251	19.973378	2.830000	0.916194	0.328259	-9.514155
730.052407	1.093573	0.448285	1.181888	104.808954	8.624693	0.021151	78.313074	78.313074	78.313074	-0.101357	20.016338	2.830000	0.916653	0.328128	-9.200994
740.568469	1.100322	0.434523	1.183013	104.820085	8.629166	0.020813	78.694878	78.694878	78.694878	-0.100328	20.060799	2.830000	0.916969	0.327958	-8.890481
751.236010	1.106476	0.420544	1.183701	104.830841	8.634691	0.020486	79.077970	79.077970	79.077970	-0.099163	20.106822	2.830000	0.917139	0.327748	-8.582772
762.057212	1.112014	0.406376	1.183942	104.841226	8.641289	0.020169	79.461770	79.461770	79.461770	-0.097859	20.154466	2.830000	0.917161	0.327497	-8.278036
773.034288	1.116917	0.392053	1.183727	104.851242	8.648983	0.019862	79.845667	79.845667	79.845667	-0.096414	20.203794	2.830000	0.917034	0.327206	-7.976464
784.169484	1.121167	0.377608	1.183048	104.860891	8.657797	0.019564	80.229015	80.229015	80.229015	-0.094826	20.254868	2.830000	0.916757	0.326873	-7.678267
795.465078	1.124748	0.363076	1.181898	104.870173	8.667755	0.019276	80.611132	80.611132	80.611132	-0.093092	20.307747	2.830000	0.916326	0.326497	-7.383679
806.923378	1.127646	0.348497	1.180270	104.879092	8.678884	0.018997	80.991302	80.991302	80.991302	-0.091213	20.362493	2.830000	0.915741	0.326079	-7.092959
818.546731	1.129851	0.333910	1.178160	104.887646	8.691210	0.018728	81.368770	81.368770	81.368770	-0.089184	20.419164	2.830000	0.915000	0.325616	-6.806394
830.337512	1.131353	0.319357	1.175563	104.895837	8.704758	0.018467	81.742747	81.742747	81.742747	-0.087005	20.477817	2.830000	0.914102	0.325110	-6.524302
842.298134	1.132146	0.304881	1.172479	104.903665	8.719555	0.018215	82.112404	82.112404	82.112404	-0.084676	20.538506	2.830000	0.913045	0.324558	-6.247031
854.431043	1.132226	0.290528	1.168906	104.911129	8.735627	0.017971	82.476876	82.476876	82.476876	-0.082194	20.601278	2.830000	0.911828	0.323961	-5.974966
866.738721	1.131593	0.276343	1.164846	104.918227	8.752998	0.017735	82.835263	82.835263	82.835263	-0.079559	20.666178	2.830000	0.910452	0.323318	-5.708528
879.223685	1.130249	0.262374	1.160303	104.924959	8.771692	0.017507	83.186627	83.186627	83.186627	-0.076772	20.733241	2.830000	0.908915	0.322629	-5.448179
891.888489	1.128203	0.248670	1.155283	104.931323	8.791730	0.017287	83.529998	83.529998	83.529998	-0.073833	20.802494	2.830000	0.907217	0.321893	-5.194425
904.735724	1.125463	0.235279	1.149793	104.937317	8.813130	0.017074	83.864372	83.864372	83.864372	-0.070744	20.873954	2.830000	0.905360	0.321112	-4.947814
917.768017	1.122044	0.222251	1.143844	104.942938	8.835905	0.016868	84.188718	84.188718	84.188718	-0.067506	20.947623	2.830000	0.903345	0.320284	-4.708944
930.988035	1.117965	0.209637	1.137450	104.948184	8.860064	0.016669	84.501977	84.501977	84.501977	-0.064122	21.023489	2.830000	0.901173	0.319411	-4.478458
944.398480	1.113248	0.197484	1.130629	104.953051	8.885609	0.016476	84.803071	84.803071	84.803071	-0.060598	21.101518	2.830000	0.898847	0.318493	-4.257052
958.002097	1.107921	0.185842	1.123399	104.957538	8.912534	0.016290	85.090905	85.090905	85.090905	-0.056937	21.181656	2.830000	0.896372	0.317530	-4.045470
971.801667	1.102015	0.174759	1.115786	104.961640	8.940823	0.016109	85.364375	85.364375	85.364375	-0.053147	21.263824	2.830000	0.893752	0.316526	-3.844506
985.800014	1.095566	0.164281	1.107815	104.965355	8.970447	0.015934	85.622377	85.622377	85.622377	-0.049237	21.347910	2.830000	0.890993	0.315480	-3.655000
1000.000000	1.088616	0.154452	1.099518	104.968681	9.001366	0.015764	85.863815	85.863815	85.863815	-0.045215	21.433770	2.830000	0.888104	0.314397	-3.477836
1014.404530	1.081209	0.145314	1.090930	104.971615	9.033521	0.015598	86.087612	86.087612	86.087612	-0.041094	21.521221	2.830000	0.885093	0.313278	-3.313934
1029.016551	1.073396	0.136907	1.082092	104.974156	9.066835	0.015437	86.292726	86.292726	86.292726	-0.036888	21.610036	2.830000	0.881971	0.312127	-3.164246
1043.839051	1.065232	0.129265	1.073046	104.976304	9.101209	0.015280	86.478160	86.478160	86.478160	-0.032613	21.699938	2.830000	0.878752	0.310948	-3.029739
1058.875063	1.056775	0.122421	1.063842	104.978059	9.136521	0.015126	86.642978	86.642978	86.642978	-0.028288	21.790600	2.830000	0.875450	0.309746	-2.911384
1074.127661	1.048088	0.116402	1.054532	104.979424	9.172619	0.014975	86.786329	86.786329	86.786329	-0.023933	21.881635	2.830000	0.872081	0.308527	-2.810139
1089.599965	1.039238	0.111230	1.045174	104.980401	9.209322	0.014827	86.907461	86.907461	86.907461	-0.019572	21.972596	2.830000	0.868667	0.307297	-2.726924
1105.295141	1.030295	0.106921	1.035828	104.980998	9.246420	0.014681	87.005743	87.005743	87.005743	-0.015232	22.062974	2.830000	0.865227	0.306064	-2.662593
1121.216399	1.021332	0.103486	1.026562	104.981223	9.283664	0.014536	87.080691	87.080691	87.080691	-0.010941	22.152192	2.830000	0.861787	0.304837	-2.617911
1137.366994	1.012425	0.100929	1.017443	104.981087	9.320774	0.014392	87.131988	87.131988	87.131988	-0.006730	22.239611	2.830000	0.858373	0.303623	-2.593506
1153.750232	1.003651	0.099247	1.008546	104.980603	9.357432	0.014249	87.159509	87.159509	87.159509	-0.002634	22.324530	2.830000	0.855012	0.302433	-2.589842
1170.369462	0.995089	0.098429	0.999945	104.979791	9.393289	0.014106	87.163349	87.163349	87.163349	0.001313	22.406194	2.830000	0.851737	0.301279	-2.607169
1187.228084	0.986819	0.098456	0.991718	104.978672	9.427964	0.013962	87.143838	87.143838	87.143838	0.005073	22.483799	2.830000	0.848578	0.300171	-2.645480
1204.329547	0.978918	0.099302	0.983942	104.977271	9.461050	0.013817	87.101571	87.101571	87.101571	0.008608	22.556510	2.830000	0.845570	0.299121	-2.704474
1221.677349	0.971466	0.100930	0.976695	104.975617	9.492124	0.013670	87.037422	87.037422	87.037422	0.011880	22.623473	2.830000	0.842746	0.298142	-2.783505
1239.275037	0.964538	0.103299	0.970054	104.973744	9.520752	0.013521	86.952558	86.952558	86.952558	0.014851	22.683842	2.830000	0.840141	0.297245	-2.881555
1257.126212	0.958207	0.106353	0.964091	104.971689	9.546504	0.013370	86.848452	86.848452	86.848452	0.017483	22.736794	2.830000	0.837788	0.296444	-2.997206
1275.234525	0.952541	0.110034	0.958875	104.969493	9.568964	0.013216	86.726886	86.726886	86.726886	0.019743	22.781565	2.830000	0.835719	0.295748	-3.128622
1293.603680	0.947602	0.114270	0.954467	104.967201	9.587751	0.013059	86.589944	86.589944	86.589944	0.021600	22.817474	2.830000	0.833963	0.295168	-3.273555
1312.237433	0.943449	0.118985	0.950922	104.964858	9.602529	0.012898	86.440004	86.440004	86.440004	0.023027	22.843955	2.830000	0.832547	0.294714	-3.429361
1331.139597	0.940129	0.124093	0.948284	104.962513	9.613024	0.012734	86.279716	86.279716	86.279716	0.024004	22.860583	2.830000	0.831492	0.294392	-3.593039
1350.314038	0.937684	0.129502	0.946584	104.960214	9.619042	0.012566	86.111973	86.111973	86.111973	0.024518	22.867105	2.830000	0.830815	0.294208	-3.761288
1369.764677	0.936144	0.135113	0.945844	104.958010	9.620476	0.012395	85.939869	85.939869	85.939869	0.024560	22.863453	2.830000	0.830527	0.294164	-3.930587
1389.495494	0.935529	0.140824	0.946069	104.955948	9.617320	0.012220	85.766656	85.766656	85.766656	0.024134	22.849769	2.830000	0.830630	0.294261	-4.097281
1409.510524	0.935848	0.146526	0.947249	104.954073	9.609669	0.012042	85.595687	85.595687	85.595687	0.023249	22.826401	2.830000	0.831121	0.294495	-4.257691
1429.813862	0.937095	0.152109	0.949360	104.952424	9.597723	0.011861	85.430353	85.430353	85.430353	0.021923	22.793909	2.830000	0.831990	0.294862	-4.408215
1450.409659	0.939253	0.157463	0.952361	104.951039	9.581780	0.011677	85.274019	85.274019	85.274019	0.020185	22.753051	2.830000	0.833218	0.295352	-4.545444
1471.302129	0.942290	0.162476	0.956195	104.949945	9.562228	0.011491	85.129953	85.129953	85.129953	0.018069	22.704763	2.830000	0.834780	0.295956	-4.666257
1492.495545	0.946161	0.167040	0.960793	104.949168	9.539533	0.011304	85.001259	85.001259	85.001259	0.015620	22.650136	2.830000	0.836643	0.296660	-4.767913
1513.994242	0.950804	0.171050	0.966068	104.948722	9.514221	0.011115	84.890808	84.890808	84.890808	0.012886	22.590381	2.830000	0.838770	0.297449	-4.848117
1535.802619	0.956146	0.174409	0.971922	104.948617	9.486866	0.010927	84.801172	84.801172	84.801172	0.009922	22.526797	2.830000	0.841117	0.298307	-4.905079
1557.925134	0.962097	0.177027	0.978248	104.948855	9.458066	0.010739	84.734570	84.734570	84.734570	0.006788	22.460734	2.830000	0.843638	0.299216	-4.937534
1580.366314	0.968557	0.178823	0.984926	104.949429	9.428428	0.010551	84.692810	84.692810	84.692810	0.003545	22.393556	2.830000	0.846280	0.300156	-4.944761
1603.130749	0.975411	0.179733	0.991832	104.950327	9.398557	0.010366	84.677253	84.677253	84.677253	0.000257	22.326612	2.830000	0.848993	0.301110	-4.926565
1626.223094	0.982537	0.179703	0.998835	104.951530	9.369036	0.010183	84.688773	84.688773	84.688773	-0.003012	22.261202	2.830000	0.851724	0.302059	-4.883261
1649.648074	0.989801	0.178698	1.005802	104.953012	9.340418	0.010003	84.727734	84.727734	84.727734	-0.006201	22.198559	2.830000	0.854419	0.302984	-4.815631
1673.410480	0.997063	0.176700	1.012599	104.954745	9.313220	0.009827	84.793973	84.793973	84.793973	-0.009249	22.139826	2.830000	0.857027	0.303869	-4.724885
1697.515172	1.004180	0.173713	1.019094	104.956694	9.287912	0.009656	84.886796	84.886796	84.886796	-0.012100	22.086042	2.830000	0.859500	0.304697	-4.612615
1721.967081	1.011007	0.169758	1.025160	104.958823	9.264919	0.009489	85.004978	85.004978	85.004978	-0.014699	22.038134	2.830000	0.861791	0.305453	-4.480743
1746.771208	1.017401	0.164881	1.030675	104.961092	9.244613	0.009327	85.146773	85.146773	85.146773	-0.017000	21.996909	2.830000	0.863857	0.306124	-4.331482
1771.932627	1.023224	0.159149	1.035527	104.963460	9.227318	0.009171	85.309935	85.309935	85.309935	-0.018960	21.963054	2.830000	0.865661	0.306698	-4.167295
1797.456484	1.028346	0.152649	1.039614	104.965884	9.213305	0.009020	85.491742	85.491742	85.491742	-0.020542	21.937127	2.830000	0.867168	0.307164	-3.990858
1823.348001	1.032649	0.145491	1.042848	104.968323	9.202796	0.008876	85.689030	85.689030	85.689030	-0.021717	21.919565	2.830000	0.868350	0.307515	-3.805032
1849.612473	1.036033	0.137804	1.045157	104.970732	9.195960	0.008738	85.898236	85.898236	85.898236	-0.022460	21.910675	2.830000	0.869184	0.307744	-3.612841
1876.255272	1.038414	0.129732	1.046487	104.973071	9.192917	0.008607	86.115445	86.115445	86.115445	-0.022756	21.910631	2.830000	0.869654	0.307846	-3.417449
1903.281848	1.039735	0.121437	1.046802	104.975298	9.193729	0.008481	86.336452	86.336452	86.336452	-0.022598	21.919473	2.830000	0.869749	0.307819	-3.222142
1930.697729	1.039960	0.113091	1.046090	104.977375	9.198402	0.008362	86.556831	86.556831	86.556831	-0.021986	21.937094	2.830000	0.869466	0.307662	-3.030308
1958.508523	1.039083	0.104872	1.044362	104.979266	9.206879	0.008248	86.772013	86.772013	86.772013	-0.020929	21.963234	2.830000	0.868810	0.307379	-2.845414
1986.719919	1.037130	0.096961	1.041653	104.980936	9.219032	0.008141	86.977379	86.977379	86.977379	-0.019448	21.997460	2.830000	0.867792	0.306974	-2.670973
2015.337686	1.034155	0.089537	1.038024	104.982357	9.234656	0.008038	87.168368	87.168368	87.168368	-0.017571	22.039157	2.830000	0.866433	0.306454	-2.510493
2044.367679	1.030246	0.082771	1.033565	104.983503	9.253457	0.007940	87.340594	87.340594	87.340594	-0.015339	22.087507	2.830000	0.864765	0.305832	-2.367421
2073.815835	1.025518	0.076819	1.028391	104.984355	9.275046	0.007846	87.489983	87.489983	87.489983	-0.012804	22.141476	2.830000	0.862826	0.305120	-2.245047
2103.688178	1.020118	0.071817	1.022643	104.984900	9.298928	0.007755	87.612914	87.612914	87.612914	-0.010030	22.199806	2.830000	0.860667	0.304336	-2.146402
2133.990819	1.014217	0.067878	1.016486	104.985132	9.324499	0.007668	87.706380	87.706380	87.706380	-0.007091	22.261006	2.830000	0.858347	0.303502	-2.074108
2164.729954	1.008008	0.065082	1.010107	104.985055	9.351042	0.007582	87.768138	87.768138	87.768138	-0.004072	22.323366	2.830000	0.855934	0.302640	-2.030222
2195.911873	1.001699	0.063475	1.003708	104.984682	9.377741	0.007497	87.796875	87.796875	87.796875	-0.001065	22.384985	2.830000	0.853504	0.301778	-2.016044
2227.542952	0.995509	0.063062	0.997505	104.984037	9.403691	0.007413	87.792337	87.792337	87.792337	0.001828	22.443814	2.830000	0.851141	0.300946	-2.031928
2259.629662	0.989659	0.063809	0.991714	104.983154	9.427932	0.007329	87.755456	87.755456	87.755456	0.004507	22.497734	2.830000	0.848928	0.300172	-2.077103
2292.178566	0.984362	0.065637	0.986548	104.982078	9.449493	0.007243	87.688417	87.688417	87.688417	0.006869	22.544650	2.830000	0.846952	0.299487	-2.149528
2325.196322	0.979818	0.068427	0.982205	104.980863	9.467442	0.007156	87.594681	87.594681	87.594681	0.008822	22.582613	2.830000	0.845292	0.298919	-2.245814
2358.689683	0.976205	0.072017	0.978858	104.979573	9.480953	0.007066	87.478944	87.478944	87.478944	0.010284	22.609955	2.830000	0.844019	0.298493	-2.361238
2392.665500	0.973666	0.076211	0.976644	104.978274	9.489374	0.006974	87.347010	87.347010	87.347010	0.011191	22.625421	2.830000	0.843189	0.298228	-2.489876
2427.130723	0.972306	0.080783	0.975656	104.977036	9.492288	0.006879	87.205593	87.205593	87.205593	0.011503	22.628296	2.830000	0.842842	0.298137	-2.624853
2462.092401	0.972182	0.085485	0.975933	104.975926	9.489558	0.006781	87.062038	87.062038	87.062038	0.011209	22.618493	2.830000	0.842992	0.298223	-2.758713
2497.557686	0.973298	0.090056	0.977456	104.975006	9.481360	0.006680	86.923981	86.923981	86.923981	0.010325	22.596602	2.830000	0.843630	0.298480	-2.883873
2533.533832	0.975606	0.094236	0.980146	104.974329	9.468179	0.006577	86.798958	86.798958	86.798958	0.008900	22.563878	2.830000	0.844722	0.298896	-2.993113
2570.028197	0.978996	0.097774	0.983866	104.973933	9.450783	0.006472	86.694004	86.694004	86.694004	0.007012	22.522181	2.830000	0.846208	0.299446	-3.080058
2607.048246	0.983308	0.100446	0.988425	104.973842	9.430173	0.006366	86.615251	86.615251	86.615251	0.004761	22.473861	2.830000	0.848010	0.300101	-3.139588
2644.601552	0.988329	0.102062	0.993585	104.974062	9.407511	0.006260	86.567564	86.567564	86.567564	0.002270	22.421607	2.830000	0.850029	0.300823	-3.168148
2682.695795	0.993806	0.102483	0.999077	104.974583	9.384050	0.006154	86.554245	86.554245	86.554245	-0.000328	22.368283	2.830000	0.852158	0.301576	-3.163926
2721.338768	0.999455	0.101627	1.004608	104.975379	9.361053	0.006050	86.576811	86.576811	86.576811	-0.002893	22.316759	2.830000	0.854282	0.302316	-3.126904
2760.538375	1.004972	0.099480	1.009883	104.976407	9.339727	0.005949	86.634863	86.634863	86.634863	-0.005289	22.269760	2.830000	0.856287	0.303007	-3.058802
2800.302634	1.010054	0.096099	1.014615	104.977615	9.321166	0.005850	86.726063	86.726063	86.726063	-0.007388	22.229730	2.830000	0.858068	0.303610	-2.962924
2840.639679	1.014414	0.091615	1.018543	104.978941	9.306305	0.005756	86.846202	86.846202	86.846202	-0.009078	22.198728	2.830000	0.859529	0.304095	-2.843964
2881.557759	1.017797	0.086226	1.021443	104.980316	9.295888	0.005665	86.989362	86.989362	86.989362	-0.010267	22.178346	2.830000	0.860591	0.304436	-2.707764
2923.065245	1.020001	0.080191	1.023148	104.981670	9.290439	0.005580	87.148180	87.148180	87.148180	-0.010890	22.169647	2.830000	0.861197	0.304614	-2.561069
2965.170628	1.020890	0.073820	1.023555	104.982933	9.290242	0.005499	87.314184	87.314184	87.314184	-0.010911	22.173109	2.830000	0.861313	0.304621	-2.411260
3007.882518	1.020408	0.067451	1.022635	104.984040	9.295323	0.005423	87.478220	87.478220	87.478220	-0.010327	22.188591	2.830000	0.860932	0.304454	-2.266074
3051.209653	1.018587	0.061435	1.020438	104.984930	9.305430	0.005351	87.630945	87.630945	87.630945	-0.009167	22.215296	2.830000	0.860073	0.304123	-2.133290
3095.160895	1.015552	0.056108	1.017100	104.985559	9.320018	0.005283	87.763385	87.763385	87.763385	-0.007500	22.251750	2.830000	0.858788	0.303647	-2.020362
3139.745234	1.011511	0.051772	1.012835	104.985892	9.338241	0.005219	87.867537	87.867537	87.867537	-0.005426	22.295805	2.830000	0.857157	0.303055	-1.933982
3184.971790	1.006756	0.048664	1.007931	104.985914	9.358957	0.005157	87.936992	87.936992	87.936992	-0.003079	22.344678	2.830000	0.855287	0.302384	-1.879578
3230.849813	1.001635	0.046943	1.002734	104.985633	9.380763	0.005096	87.967534	87.967534	87.967534	-0.000621	22.395048	2.830000	0.853308	0.301681	-1.860750
3277.388687	0.996535	0.046665	0.997627	104.985075	9.402057	0.005037	87.957652	87.957652	87.957652	0.001768	22.443232	2.830000	0.851366	0.300998	-1.878713
3324.597932	0.991853	0.047779	0.993003	104.984293	9.421147	0.004976	87.908909	87.908909	87.908909	0.003905	22.485446	2.830000	0.849615	0.300388	-1.931826
3372.487204	0.987963	0.050121	0.989234	104.983359	9.436406	0.004915	87.826079	87.826079	87.826079	0.005615	22.518151	2.830000	0.848199	0.299902	-2.015337
3421.066299	0.985186	0.053422	0.986634	104.982361	9.446450	0.004851	87.716994	87.716994	87.716994	0.006752	22.538444	2.830000	0.847240	0.299583	-2.121452
3470.345152	0.983757	0.057326	0.985426	104.981395	9.450324	0.004785	87.592058	87.592058	87.592058	0.007214	22.544448	2.830000	0.846826	0.299461	-2.239833
3520.333844	0.983798	0.061415	0.985713	104.980559	9.447656	0.004717	87.463425	87.463425	87.463425	0.006963	22.535617	2.830000	0.846995	0.299545	-2.358533
3571.042600	0.985306	0.065245	0.987463	104.979937	9.438741	0.004646	87.343902	87.343902	87.343902	0.006025	22.512897	2.830000	0.847728	0.299828	-2.465258
3622.481792	0.988139	0.068381	0.990502	104.979595	9.424537	0.004573	87.245694	87.245694	87.245694	0.004498	22.478682	2.830000	0.848952	0.300280	-2.548785
3674.661941	0.992029	0.070446	0.994527	104.979568	9.406559	0.004499	87.179117	87.179117	87.179117	0.002539	22.436573	2.830000	0.850540	0.300854	-2.600281
3727.593720	0.996593	0.071159	0.999130	104.979862	9.386706	0.004426	87.151460	87.151460	87.151460	0.000350	22.390981	2.830000	0.852329	0.301490	-2.614304
3781.287957	1.001372	0.070364	1.003841	104.980445	9.367042	0.004353	87.166124	87.166124	87.166124	-0.001843	22.346636	2.830000	0.854135	0.302123	-2.589364
3835.755635	1.005870	0.068062	1.008170	104.981260	9.349576	0.004282	87.222149	87.222149	87.222149	-0.003812	22.308087	2.830000	0.855772	0.302688	-2.528006
3891.007893	1.009609	0.064415	1.011662	104.982223	9.336068	0.004213	87.314180	87.314180	87.314180	-0.005352	22.279251	2.830000	0.857070	0.303125	-2.436474
3947.056035	1.012180	0.059737	1.013941	104.983235	9.327867	0.004149	87.432876	87.432876	87.432876	-0.006302	22.263052	2.830000	0.857893	0.303392	-2.324076
4003.911523	1.013292	0.054470	1.014755	104.984190	9.325799	0.004088	87.565754	87.565754	87.565754	-0.006561	22.261145	2.830000	0.858155	0.303459	-2.202336
4061.585988	1.012819	0.049137	1.014010	104.984990	9.330077	0.004031	87.698391	87.698391	87.698391	-0.006098	22.273736	2.830000	0.857828	0.303320	-2.083982
4120.091227	1.010817	0.044285	1.011787	104.985547	9.340258	0.003978	87.815924	87.815924	87.815924	-0.004962	22.299487	2.830000	0.856947	0.302990	-1.981816
4179.439206	1.007536	0.040419	1.008346	104.985800	9.355222	0.003928	87.904744	87.904744	87.904744	-0.003280	22.335530	2.830000	0.855614	0.302505	-1.907431
4239.642065	1.003389	0.037934	1.004106	104.985721	9.373224	0.003880	87.954232	87.954232	87.954232	-0.001253	22.377618	2.830000	0.853990	0.301924	-1.869803
4300.712118	0.998919	0.037059	0.999606	104.985322	9.392014	0.003834	87.958348	87.958348	87.958348	0.000866	22.420472	2.830000	0.852279	0.301320	-1.873878
4362.661857	0.994723	0.037814	0.995442	104.984659	9.409074	0.003787	87.916829	87.916829	87.916829	0.002798	22.458358	2.830000	0.850711	0.300773	-1.919347
4425.503952	0.991380	0.039998	0.992186	104.983826	9.421958	0.003739	87.835702	87.835702	87.835702	0.004274	22.485880	2.830000	0.849507	0.300362	-1.999995
4489.251258	0.989361	0.043202	0.990303	104.982947	9.428706	0.003689	87.726898	87.726898	87.726898	0.005081	22.498893	2.830000	0.848844	0.300147	-2.103968
4553.916814	0.988959	0.046858	0.990069	104.982157	9.428246	0.003637	87.606846	87.606846	87.606846	0.005098	22.495350	2.830000	0.848823	0.300162	-2.215218
4619.513847	0.990234	0.050317	0.991512	104.981580	9.420663	0.003583	87.494135	87.494135	87.494135	0.004326	22.475835	2.830000	0.849447	0.300403	-2.316026
4686.055775	0.992987	0.052945	0.994397	104.981308	9.407243	0.003527	87.406589	87.406589	87.406589	0.002894	22.443607	2.830000	0.850614	0.300832	-2.390119
4753.556208	0.996778	0.054221	0.998252	104.981384	9.390268	0.003471	87.358252	87.358252	87.358252	0.001043	22.404085	2.830000	0.852129	0.301376	-2.425659
4822.028953	1.000988	0.053835	1.002435	104.981792	9.372604	0.003414	87.356867	87.356867	87.356867	-0.000916	22.363907	2.830000	0.853741	0.301944	-2.417373
4891.488015	1.004909	0.051747	1.006241	104.982461	9.357202	0.003360	87.402342	87.402342	87.402342	-0.002653	22.329782	2.830000	0.855177	0.302441	-2.367429
4961.947603	1.007865	0.048212	1.009017	104.983274	9.346607	0.003307	87.486498	87.486498	87.486498	-0.003872	22.307369	2.830000	0.856196	0.302784	-2.284999
5033.422128	1.009330	0.043751	1.010278	104.984089	9.342560	0.003258	87.594190	87.594190	87.594190	-0.004364	22.300373	2.830000	0.856626	0.302915	-2.184778
5105.926210	1.009039	0.039071	1.009795	104.984760	9.345724	0.003213	87.705654	87.705654	87.705654	-0.004042	22.309922	2.830000	0.856392	0.302812	-2.084732
5179.474679	1.007049	0.034939	1.007655	104.985164	9.355534	0.003170	87.799822	87.799822	87.799822	-0.002960	22.334284	2.830000	0.855537	0.302495	-2.003343
5254.082580	1.003748	0.032041	1.004260	104.985220	9.370200	0.003130	87.858152	87.858152	87.858152	-0.001317	22.368951	2.830000	0.854222	0.302021	-1.956518
5329.765172	0.999795	0.030836	1.000270	104.984911	9.386900	0.003092	87.868397	87.868397	87.868397	0.000571	22.407196	2.830000	0.852703	0.301484	-1.954417
5406.537936	0.995999	0.031451	0.996495	104.984293	9.402215	0.003054	87.827578	87.827578	87.827578	0.002324	22.441159	2.830000	0.851292	0.300993	-1.998748
5484.416576	0.993159	0.033635	0.993729	104.983489	9.412807	0.003014	87.743352	87.743352	87.743352	0.003570	22.463437	2.830000	0.850290	0.300654	-2.081353
5563.417021	0.991890	0.036792	0.992572	104.982670	9.416234	0.002973	87.633106	87.633106	87.633106	0.004037	22.468890	2.830000	0.849923	0.300545	-2.185013
5643.555431	0.992470	0.040096	0.993280	104.982015	9.411662	0.002930	87.520599	87.520599	87.520599	0.003619	22.456152	2.830000	0.850277	0.300691	-2.286911
5724.848197	0.994765	0.042666	0.995679	104.981669	9.400198	0.002885	87.430648	87.430648	87.430648	0.002421	22.428243	2.830000	0.851267	0.301057	-2.364155
5807.311946	0.998230	0.043773	0.999189	104.981706	9.384669	0.002839	87.383098	87.383098	87.383098	0.000738	22.391959	2.830000	0.852654	0.301556	-2.399755
5890.963548	1.002023	0.043023	1.002946	104.982104	9.368903	0.002793	87.387685	87.387685	87.387685	-0.001012	22.356182	2.830000	0.854097	0.302063	-2.387098
5975.820111	1.005199	0.040478	1.006014	104.982751	9.356757	0.002750	87.441221	87.441221	87.441221	-0.002395	22.329640	2.830000	0.855240	0.302455	-2.331630
6061.898993	1.006945	0.036664	1.007612	104.983474	9.351180	0.002708	87.527933	87.527933	87.527933	-0.003060	22.318763	2.830000	0.855799	0.302636	-2.249514
6149.217802	1.006803	0.032456	1.007326	104.984073	9.353504	0.002670	87.623000	87.623000	87.623000	-0.002839	22.326101	2.830000	0.855635	0.302560	-2.163854
6237.794396	1.004815	0.028861	1.005230	104.984375	9.363077	0.002635	87.698628	87.698628	87.698628	-0.001786	22.349569	2.830000	0.854796	0.302251	-2.099306
6327.646895	1.001540	0.026745	1.001897	104.984279	9.377291	0.002602	87.731395	87.731395	87.731395	-0.000186	22.382673	2.830000	0.853513	0.301793	-2.075926
6418.793677	0.997920	0.026573	0.998273	104.983793	9.392088	0.002570	87.709159	87.709159	87.709159	0.001512	22.415871	2.830000	0.852154	0.301317	-2.103271
6511.253386	0.995021	0.028251	0.995422	104.983035	9.402998	0.002536	87.635465	87.635465	87.635465	0.002808	22.439063	2.830000	0.851125	0.300968	-2.176422
6605.044933	0.993722	0.031126	0.994209	104.982215	9.406526	0.002502	87.529614	87.529614	87.529614	0.003306	22.444762	2.830000	0.850748	0.300855	-2.275970
6700.187504	0.994424	0.034154	0.995010	104.981570	9.401460	0.002465	87.421533	87.421533	87.421533	0.002851	22.430887	2.830000	0.851148	0.301017	-2.373240
6796.700558	0.996896	0.036219	0.997554	104.981286	9.389452	0.002427	87.342490	87.342490	87.342490	0.001598	22.401865	2.830000	0.852195	0.301402	-2.439745
6894.603838	1.000320	0.036496	1.000986	104.981430	9.374536	0.002389	87.314564	87.314564	87.314564	-0.000026	22.367314	2.830000	0.853539	0.301882	-2.457282
6993.917368	1.003533	0.034746	1.004135	104.981926	9.361725	0.002351	87.342679	87.342679	87.342679	-0.001466	22.338754	2.830000	0.854728	0.302295	-2.424481
7094.661463	1.005416	0.031431	1.005908	104.982573	9.355296	0.002316	87.412251	87.412251	87.412251	-0.002224	22.325643	2.830000	0.855357	0.302502	-2.357353
7196.856730	1.005298	0.027592	1.005677	104.983111	9.357347	0.002283	87.493559	87.493559	87.493559	-0.002034	22.332149	2.830000	0.855214	0.302436	-2.284069
7300.524071	1.003229	0.024486	1.003527	104.983312	9.367032	0.002253	87.551725	87.551725	87.551725	-0.000963	22.355554	2.830000	0.854358	0.302123	-2.235735
7405.684692	0.999996	0.023131	1.000263	104.983060	9.380667	0.002225	87.559354	87.559354	87.559354	0.000591	22.386795	2.830000	0.853117	0.301684	-2.235556
7512.360102	0.996862	0.023888	0.997149	104.982408	9.392847	0.002196	87.507594	87.507594	87.507594	0.002030	22.413326	2.830000	0.851979	0.301293	-2.289349
7620.572122	0.995081	0.026288	0.995429	104.981569	9.398472	0.002167	87.410996	87.410996	87.410996	0.002775	22.423888	2.830000	0.851413	0.301113	-2.381392
7730.342884	0.995382	0.029172	0.995809	104.980846	9.395017	0.002136	87.303008	87.303008	87.303008	0.002520	22.413536	2.830000	0.851665	0.301224	-2.479215
7841.694843	0.997629	0.031154	0.998116	104.980499	9.383884	0.002103	87.222600	87.222600	87.222600	0.001380	22.386351	2.830000	0.852631	0.301581	-2.547117
7954.650775	1.000841	0.031207	1.001327	104.980627	9.369918	0.002070	87.197222	87.197222	87.197222	-0.000135	22.353962	2.830000	0.853891	0.302030	-2.562473
8069.233784	1.003578	0.029143	1.004001	104.981120	9.359226	0.002038	87.229931	87.229931	87.229931	-0.001343	22.330361	2.830000	0.854891	0.302375	-2.526369
8185.467307	1.004586	0.025744	1.004916	104.981695	9.356435	0.002008	87.297066	87.297066	87.297066	-0.001694	22.325587	2.830000	0.855187	0.302466	-2.463339
8303.375120	1.003395	0.022444	1.003646	104.982022	9.362610	0.001980	87.358142	87.358142	87.358142	-0.001027	22.341134	2.830000	0.854656	0.302266	-2.410795
8422.981339	1.000591	0.020666	1.000804	104.981876	9.374612	0.001955	87.374321	87.374321	87.374321	0.000340	22.368886	2.830000	0.853567	0.301879	-2.402427
8544.310429	0.997578	0.021111	0.997801	104.981251	9.386286	0.001930	87.327664	87.327664	87.327664	0.001733	22.394333	2.830000	0.852474	0.301504	-2.451679
8667.387209	0.995901	0.023360	0.996174	104.980386	9.391340	0.001904	87.231718	87.231718	87.231718	0.002435	22.403480	2.830000	0.851957	0.301341	-2.542946
8792.236851	0.996437	0.026036	0.996777	104.979655	9.386812	0.001876	87.126325	87.126325	87.126325	0.002078	22.390583	2.830000	0.852304	0.301487	-2.637542
8918.884894	0.998887	0.027503	0.999266	104.979372	9.375014	0.001847	87.057147	87.057147	87.057147	0.000864	22.362017	2.830000	0.853337	0.301866	-2.694228
9047.357242	1.001881	0.026762	1.002238	104.979605	9.362384	0.001818	87.050149	87.050149	87.050149	-0.000516	22.333065	2.830000	0.854489	0.302273	-2.693030
9177.680175	1.003705	0.024053	1.003994	104.980124	9.355827	0.001791	87.095899	87.095899	87.095899	-0.001275	22.319261	2.830000	0.855120	0.302485	-2.647158
9309.880348	1.003295	0.020781	1.003510	104.980528	9.358782	0.001766	87.153694	87.153694	87.153694	-0.000972	22.327472	2.830000	0.854885	0.302390	-2.595956
9443.984802	1.000908	0.018726	1.001083	104.980464	9.369151	0.001743	87.174392	87.174392	87.174392	0.000210	22.351649	2.830000	0.853948	0.302055	-2.582996
9580.020968	0.998033	0.018955	0.998213	104.979848	9.380203	0.001721	87.130106	87.130106	87.130106	0.001545	22.375682	2.830000	0.852909	0.301699	-2.630168
9718.016671	0.996502	0.021110	0.996725	104.978942	9.384464	0.001697	87.033257	87.033257	87.033257	0.002181	22.382853	2.830000	0.852458	0.301562	-2.721956
9858.000137	0.997309	0.023566	0.997588	104.978207	9.378723	0.001673	86.930847	86.930847	86.930847	0.001704	22.367090	2.830000	0.852915	0.301747	-2.812800
10000.000000	0.999901	0.024467	1.000200	104.978002	9.366574	0.001647	86.874276	86.874276	86.874276	0.000447	22.337918	2.830000	0.853988	0.302138	-2.857144
10144.045304	1.002478	0.022988	1.002742	104.978322	9.356091	0.001621	86.883680	86.883680	86.883680	-0.000710	22.314264	2.830000	0.854957	0.302477	-2.841800
10290.165513	1.003215	0.019980	1.003414	104.978788	9.354174	0.001598	86.932429	86.932429	86.932429	-0.000950	22.311206	2.830000	0.855165	0.302539	-2.795900
10438.390514	1.001586	0.017425	1.001738	104.978898	9.361668	0.001576	86.964491	86.964491	86.964491	-0.000103	22.329179	2.830000	0.854499	0.302297	-2.771188
10588.750628	0.998823	0.017013	0.998968	104.978390	9.372482	0.001556	86.934532	86.934532	86.934532	0.001200	22.353007	2.830000	0.853488	0.301948	-2.805481
10741.276608	0.997053	0.018827	0.997231	104.977458	9.377717	0.001535	86.843224	86.843224	86.843224	0.001959	22.362394	2.830000	0.852947	0.301779	-2.892903
10895.999653	0.997666	0.021200	0.997891	104.976639	9.372624	0.001513	86.739392	86.739392	86.739392	0.001577	22.347879	2.830000	0.853340	0.301943	-2.985215
11052.951411	1.000149	0.021982	1.000391	104.976390	9.360865	0.001489	86.682569	86.682569	86.682569	0.000375	22.319471	2.830000	0.854377	0.302322	-3.029557
11212.163986	1.002427	0.020306	1.002633	104.976700	9.351695	0.001466	86.693542	86.693542	86.693542	-0.000633	22.298866	2.830000	0.855227	0.302619	-3.013252
11373.669943	1.002558	0.017388	1.002709	104.977074	9.352183	0.001446	86.735127	86.735127	86.735127	-0.000592	22.301179	2.830000	0.855212	0.302603	-2.975451
11537.502317	1.000443	0.015558	1.000564	104.976938	9.361129	0.001427	86.742225	86.742225	86.742225	0.000458	22.321800	2.830000	0.854396	0.302314	-2.974923
11703.694619	0.997999	0.016217	0.998130	104.976144	9.369716	0.001408	86.678683	86.678683	86.678683	0.001574	22.339505	2.830000	0.853562	0.302037	-3.039162
11872.280844	0.997484	0.018499	0.997656	104.975140	9.369135	0.001388	86.572261	86.572261	86.572261	0.001723	22.335010	2.830000	0.853537	0.302056	-3.136775
12043.295474	0.999372	0.019987	0.999572	104.974587	9.359161	0.001367	86.491504	86.491504	86.491504	0.000774	22.309845	2.830000	0.854391	0.302378	-3.204004
12216.773490	1.001807	0.018996	1.001987	104.974716	9.348781	0.001346	86.480365	86.480365	86.480365	-0.000334	22.285821	2.830000	0.855337	0.302713	-3.206745
12392.750375	1.002356	0.016288	1.002488	104.975072	9.347380	0.001327	86.513286	86.513286	86.513286	-0.000494	22.283633	2.830000	0.855491	0.302759	-3.175540
12571.262124	1.000473	0.014398	1.000577	104.974945	9.355309	0.001309	86.518647	86.518647	86.518647	0.000452	22.301899	2.830000	0.854766	0.302502	-3.176292
12752.345251	0.998158	0.015050	0.998271	104.974094	9.363142	0.001292	86.451642	86.451642	86.451642	0.001506	22.317667	2.830000	0.853994	0.302249	-3.243568
12936.036796	0.997908	0.017262	0.998057	104.973041	9.361245	0.001273	86.343936	86.343936	86.343936	0.001532	22.309923	2.830000	0.854084	0.302310	-3.341335
13122.374331	0.999981	0.018315	1.000148	104.972544	9.350650	0.001254	86.272180	86.272180	86.272180	0.000512	22.283454	2.830000	0.855000	0.302653	-3.399311
13311.395971	1.002004	0.016764	1.002144	104.972738	9.342303	0.001235	86.272394	86.272394	86.272394	-0.000379	22.264402	2.830000	0.855770	0.302923	-3.392720
13503.140379	1.001625	0.014173	1.001725	104.972940	9.344539	0.001218	86.296556	86.296556	86.296556	-0.000107	22.270302	2.830000	0.855583	0.302851	-3.372260
13697.646775	0.999320	0.013375	0.999410	104.972424	9.353224	0.001202	86.266573	86.266573	86.266573	0.000996	22.289139	2.830000	0.854759	0.302569	-3.406440
13894.954944	0.997929	0.015056	0.998043	104.971301	9.356185	0.001185	86.168321	86.168321	86.168321	0.001576	22.292603	2.830000	0.854405	0.302474	-3.499159
14095.105244	0.999186	0.016807	0.999327	104.970440	9.348177	0.001168	86.072379	86.072379	86.072379	0.000910	22.271078	2.830000	0.855061	0.302733	-3.581067
14298.138616	1.001444	0.016099	1.001574	104.970385	9.338090	0.001150	86.046315	86.046315	86.046315	-0.000124	22.247148	2.830000	0.855970	0.303060	-3.596838
14504.096588	1.001717	0.013614	1.001810	104.970608	9.337527	0.001133	86.065247	86.065247	86.065247	-0.000158	22.246517	2.830000	0.856038	0.303078	-3.579008
14713.021288	0.999659	0.012448	0.999737	104.970172	9.345326	0.001118	86.042255	86.042255	86.042255	0.000845	22.263531	2.830000	0.855298	0.302825	-3.606456
14924.955451	0.998149	0.013912	0.998246	104.969001	9.348670	0.001103	85.946136	85.946136	85.946136	0.001487	22.267758	2.830000	0.854905	0.302717	-3.697643
15139.942425	0.999321	0.015608	0.999443	104.968052	9.340805	0.001087	85.848128	85.848128	85.848128	0.000861	22.246284	2.830000	0.855544	0.302972	-3.781184
15358.026185	1.001437	0.014776	1.001546	104.967965	9.331283	0.001070	85.821840	85.821840	85.821840	-0.000100	22.223571	2.830000	0.856401	0.303281	-3.797172
15579.251340	1.001333	0.012394	1.001409	104.968083	9.332075	0.001055	85.833410	85.833410	85.833410	0.000042	22.225805	2.830000	0.856338	0.303255	-3.787231
15803.663140	0.999198	0.011822	0.999268	104.967393	9.339480	0.001041	85.789692	85.789692	85.789692	0.001058	22.241108	2.830000	0.855613	0.303015	-3.833787
16031.307485	0.998398	0.013626	0.998491	104.966091	9.339315	0.001026	85.681610	85.681610	85.681610	0.001350	22.236667	2.830000	0.855527	0.303020	-3.933090
16262.230941	1.000193	0.014582	1.000299	104.965347	9.329336	0.001011	85.601887	85.601887	85.601887	0.000462	22.210828	2.830000	0.856376	0.303344	-3.997447
16496.480741	1.001602	0.012830	1.001684	104.965411	9.323372	0.000996	85.595973	85.595973	85.595973	-0.000126	22.196961	2.830000	0.856923	0.303538	-3.997469
16734.104799	1.000268	0.011044	1.000329	104.965149	9.328452	0.000982	85.584326	85.584326	85.584326	0.000567	22.208128	2.830000	0.856441	0.303373	-4.012780
16975.151720	0.998527	0.011979	0.998598	104.963923	9.332622	0.000969	85.495145	85.495145	85.495145	0.001335	22.214148	2.830000	0.855967	0.303237	-4.098625
17219.670809	0.999445	0.013632	0.999538	104.962755	9.325307	0.000955	85.390947	85.390947	85.390947	0.000826	22.193263	2.830000	0.856542	0.303475	-4.187606
17467.712080	1.001325	0.012701	1.001405	104.962557	9.316559	0.000940	85.360045	85.360045	85.360045	-0.000017	22.171999	2.830000	0.857324	0.303760	-4.207652
17719.326270	1.000690	0.010626	1.000747	104.962428	9.318954	0.000927	85.354443	85.354443	85.354443	0.000365	22.177252	2.830000	0.857096	0.303682	-4.215089
17974.564843	0.998783	0.011011	0.998844	104.961275	9.324036	0.000915	85.276612	85.276612	85.276612	0.001233	22.185660	2.830000	0.856544	0.303517	-4.291552
18233.480009	0.999298	0.012742	0.999379	104.959924	9.317990	0.000901	85.165944	85.165944	85.165944	0.000907	22.167189	2.830000	0.856991	0.303714	-4.387391
18496.124725	1.001173	0.012059	1.001246	104.959575	9.308864	0.000888	85.124815	85.124815	85.124815	0.000057	22.144551	2.830000	0.857798	0.304011	-4.416032
18762.552716	1.000608	0.010055	1.000659	104.959377	9.310760	0.000875	85.113699	85.113699	85.113699	0.000407	22.148417	2.830000	0.857609	0.303949	-4.428152
19032.818477	0.998817	0.010547	0.998872	104.958100	9.314970	0.000864	85.029318	85.029318	85.029318	0.001214	22.154387	2.830000	0.857126	0.303812	-4.510011
19306.977289	0.999590	0.012110	0.999664	104.956724	9.307754	0.000851	84.920389	84.920389	84.920389	0.000773	22.133068	2.830000	0.857680	0.304048	-4.602704
19585.085230	1.001209	0.011027	1.001270	104.956417	9.299894	0.000838	84.886221	84.886221	84.886221	0.000063	22.113535	2.830000	0.858377	0.304305	-4.625812
19867.199185	1.000103	0.009396	1.000147	104.955949	9.303368	0.000827	84.859524	84.859524	84.859524	0.000650	22.120292	2.830000	0.858022	0.304191	-4.654016
20000.000000	0.999210	0.009629	0.999257	104.955296	9.305413	0.000821	84.818197	84.818197	84.818197	0.001053	22.123096	2.830000	0.857784	0.304124	-4.694194
