Freq (hertz)	Ra (norm)	Xa (norm)	Za (norm)	SPL (dB)	Ze (ohms)	Xd (mm) 	WPhase (deg)	UPhase (deg)	CPhase (deg)	Delay (msec)	Efficiency (%)	Ein (volts)	Pin (watts)	Iin (amps)	ZePhase (deg)

10.000000	0.000454	0.025571	0.025575	71.006242	27.083182	1.551518	100.158165	100.158165	100.158165	3.383753	0.075026	2.830000	0.101884	0.104493	69.846617
10.144045	0.000467	0.025939	0.025943	71.135356	27.524572	1.530351	99.984879	99.984879	99.984879	3.300665	0.078557	2.830000	0.100241	0.102817	69.848545
10.290166	0.000481	0.026312	0.026317	71.264346	27.975613	1.509452	99.813409	99.813409	99.813409	3.219749	0.082237	2.830000	0.098642	0.101160	69.844856
10.438391	0.000495	0.026691	0.026696	71.393216	28.436598	1.488818	99.643730	99.643730	99.643730	3.140952	0.086071	2.830000	0.097086	0.099520	69.835452
10.588751	0.000509	0.027075	0.027080	71.521971	28.907832	1.468446	99.475815	99.475815	99.475815	3.064225	0.090065	2.830000	0.095573	0.097897	69.820231
10.741277	0.000524	0.027465	0.027470	71.650613	29.389633	1.448334	99.309637	99.309637	99.309637	2.989515	0.094224	2.830000	0.094100	0.096292	69.799083
10.896000	0.000539	0.027861	0.027866	71.779145	29.882334	1.428480	99.145172	99.145172	99.145172	2.916775	0.098555	2.830000	0.092668	0.094705	69.771894
11.052951	0.000555	0.028262	0.028267	71.907571	30.386282	1.408880	98.982392	98.982392	98.982392	2.845957	0.103062	2.830000	0.091275	0.093134	69.738539
11.212164	0.000571	0.028669	0.028674	72.035894	30.901840	1.389534	98.821271	98.821271	98.821271	2.777012	0.107752	2.830000	0.089921	0.091580	69.698890
11.373670	0.000587	0.029081	0.029087	72.164116	31.429386	1.370437	98.661785	98.661785	98.661785	2.709896	0.112630	2.830000	0.088604	0.090043	69.652810
11.537502	0.000604	0.029500	0.029506	72.292242	31.969317	1.351588	98.503906	98.503906	98.503906	2.644562	0.117704	2.830000	0.087323	0.088522	69.600154
11.703695	0.000622	0.029925	0.029931	72.420273	32.522047	1.332983	98.347609	98.347609	98.347609	2.580966	0.122978	2.830000	0.086078	0.087018	69.540767
11.872281	0.000640	0.030355	0.030362	72.548213	33.088010	1.314621	98.192868	98.192868	98.192868	2.519066	0.128461	2.830000	0.084868	0.085529	69.474487
12.043295	0.000658	0.030792	0.030799	72.676065	33.667660	1.296499	98.039657	98.039657	98.039657	2.458819	0.134158	2.830000	0.083692	0.084057	69.401142
12.216773	0.000677	0.031235	0.031243	72.803831	34.261471	1.278614	97.887950	97.887950	97.887950	2.400183	0.140076	2.830000	0.082549	0.082600	69.320548
12.392750	0.000697	0.031685	0.031693	72.931513	34.869943	1.260964	97.737723	97.737723	97.737723	2.343118	0.146222	2.830000	0.081439	0.081159	69.232513
12.571262	0.000717	0.032141	0.032149	73.059115	35.493597	1.243546	97.588949	97.588949	97.588949	2.287584	0.152604	2.830000	0.080360	0.079733	69.136831
12.752345	0.000738	0.032604	0.032612	73.186640	36.132980	1.226358	97.441602	97.441602	97.441602	2.233542	0.159227	2.830000	0.079312	0.078322	69.033284
12.936037	0.000759	0.033073	0.033082	73.314089	36.788666	1.209397	97.295659	97.295659	97.295659	2.180955	0.166101	2.830000	0.078295	0.076926	68.921642
13.122374	0.000782	0.033549	0.033558	73.441465	37.461257	1.192661	97.151092	97.151092	97.151092	2.129785	0.173231	2.830000	0.077306	0.075545	68.801660
13.311396	0.000804	0.034032	0.034041	73.568770	38.151385	1.176147	97.007877	97.007877	97.007877	2.079997	0.180625	2.830000	0.076347	0.074178	68.673079
13.503140	0.000828	0.034522	0.034532	73.696008	38.859713	1.159852	96.865989	96.865989	96.865989	2.031554	0.188292	2.830000	0.075416	0.072826	68.535623
13.697647	0.000852	0.035018	0.035029	73.823179	39.586937	1.143775	96.725403	96.725403	96.725403	1.984422	0.196239	2.830000	0.074512	0.071488	68.388999
13.894955	0.000876	0.035522	0.035533	73.950288	40.333790	1.127913	96.586093	96.586093	96.586093	1.938567	0.204474	2.830000	0.073635	0.070164	68.232898
14.095105	0.000902	0.036034	0.036045	74.077335	41.101041	1.112263	96.448035	96.448035	96.448035	1.893957	0.213006	2.830000	0.072784	0.068855	68.066988
14.298139	0.000928	0.036552	0.036564	74.204322	41.889497	1.096822	96.311204	96.311204	96.311204	1.850560	0.221841	2.830000	0.071959	0.067559	67.890918
14.504097	0.000955	0.037078	0.037090	74.331253	42.700009	1.081589	96.175576	96.175576	96.175576	1.808343	0.230990	2.830000	0.071158	0.066276	67.704317
14.713021	0.000982	0.037612	0.037624	74.458129	43.533471	1.066561	96.041125	96.041125	96.041125	1.767276	0.240460	2.830000	0.070383	0.065007	67.506786
14.924955	0.001011	0.038153	0.038166	74.584953	44.390823	1.051736	95.907828	95.907828	95.907828	1.727329	0.250259	2.830000	0.069630	0.063752	67.297905
15.139942	0.001040	0.038702	0.038716	74.711725	45.273055	1.037111	95.775660	95.775660	95.775660	1.688473	0.260398	2.830000	0.068902	0.062510	67.077221
15.358026	0.001070	0.039259	0.039273	74.838449	46.181206	1.022683	95.644596	95.644596	95.644596	1.650680	0.270884	2.830000	0.068196	0.061280	66.844258
15.579251	0.001101	0.039824	0.039839	74.965127	47.116373	1.008451	95.514612	95.514612	95.514612	1.613921	0.281726	2.830000	0.067512	0.060064	66.598505
15.803663	0.001133	0.040396	0.040412	75.091759	48.079707	0.994412	95.385685	95.385685	95.385685	1.578169	0.292935	2.830000	0.066850	0.058861	66.339417
16.031307	0.001166	0.040978	0.040994	75.218348	49.072422	0.980564	95.257789	95.257789	95.257789	1.543399	0.304518	2.830000	0.066209	0.057670	66.066414
16.262231	0.001200	0.041567	0.041584	75.344896	50.095794	0.966904	95.130902	95.130902	95.130902	1.509583	0.316486	2.830000	0.065589	0.056492	65.778876
16.496481	0.001235	0.042165	0.042183	75.471405	51.151166	0.953431	95.004999	95.004999	95.004999	1.476697	0.328847	2.830000	0.064989	0.055326	65.476143
16.734105	0.001271	0.042772	0.042791	75.597877	52.239949	0.940141	94.880056	94.880056	94.880056	1.444717	0.341612	2.830000	0.064409	0.054173	65.157509
16.975152	0.001308	0.043387	0.043407	75.724313	53.363628	0.927033	94.756050	94.756050	94.756050	1.413618	0.354790	2.830000	0.063849	0.053032	64.822217
17.219671	0.001346	0.044011	0.044032	75.850715	54.523763	0.914104	94.632957	94.632957	94.632957	1.383377	0.368391	2.830000	0.063308	0.051904	64.469461
17.467712	0.001385	0.044644	0.044666	75.977085	55.721992	0.901352	94.510754	94.510754	94.510754	1.353971	0.382426	2.830000	0.062785	0.050788	64.098379
17.719326	0.001425	0.045286	0.045309	76.103424	56.960035	0.888775	94.389417	94.389417	94.389417	1.325378	0.396903	2.830000	0.062281	0.049684	63.708045
17.974565	0.001466	0.045937	0.045961	76.229734	58.239693	0.876371	94.268923	94.268923	94.268923	1.297576	0.411833	2.830000	0.061794	0.048592	63.297472
18.233480	0.001509	0.046598	0.046623	76.356018	59.562854	0.864138	94.149247	94.149247	94.149247	1.270545	0.427227	2.830000	0.061325	0.047513	62.865599
18.496125	0.001552	0.047268	0.047294	76.482275	60.931491	0.852073	94.030369	94.030369	94.030369	1.244264	0.443094	2.830000	0.060873	0.046446	62.411292
18.762553	0.001597	0.047948	0.047975	76.608509	62.347661	0.840174	93.912263	93.912263	93.912263	1.218712	0.459446	2.830000	0.060438	0.045391	61.933335
19.032818	0.001644	0.048637	0.048665	76.734721	63.813509	0.828440	93.794907	93.794907	93.794907	1.193871	0.476292	2.830000	0.060020	0.044348	61.430423
19.306977	0.001691	0.049337	0.049366	76.860912	65.331260	0.816867	93.678277	93.678277	93.678277	1.169721	0.493644	2.830000	0.059617	0.043318	60.901159
19.585085	0.001740	0.050046	0.050076	76.987084	66.903218	0.805455	93.562352	93.562352	93.562352	1.146244	0.511511	2.830000	0.059231	0.042300	60.344044
19.867199	0.001791	0.050766	0.050797	77.113238	68.531758	0.794201	93.447107	93.447107	93.447107	1.123422	0.529906	2.830000	0.058860	0.041295	59.757470
20.153377	0.001843	0.051495	0.051528	77.239376	70.219317	0.783102	93.332521	93.332521	93.332521	1.101237	0.548837	2.830000	0.058504	0.040302	59.139713
20.443677	0.001896	0.052236	0.052270	77.365500	71.968380	0.772158	93.218569	93.218569	93.218569	1.079673	0.568318	2.830000	0.058164	0.039323	58.488924
20.738158	0.001951	0.052987	0.053023	77.491611	73.781463	0.761366	93.105231	93.105231	93.105231	1.058712	0.588357	2.830000	0.057838	0.038357	57.803124
21.036882	0.002008	0.053748	0.053786	77.617710	75.661087	0.750724	92.992481	92.992481	92.992481	1.038338	0.608967	2.830000	0.057527	0.037404	57.080189
21.339908	0.002066	0.054521	0.054560	77.743800	77.609753	0.740230	92.880299	92.880299	92.880299	1.018536	0.630158	2.830000	0.057230	0.036464	56.317850
21.647300	0.002126	0.055304	0.055345	77.869881	79.629896	0.729882	92.768661	92.768661	92.768661	0.999291	0.651941	2.830000	0.056947	0.035539	55.513677
21.959119	0.002187	0.056099	0.056142	77.995955	81.723843	0.719678	92.657544	92.657544	92.657544	0.980586	0.674328	2.830000	0.056679	0.034629	54.665078
22.275430	0.002251	0.056905	0.056950	78.122023	83.893749	0.709617	92.546927	92.546927	92.546927	0.962409	0.697329	2.830000	0.056423	0.033733	53.769288
22.596297	0.002316	0.057723	0.057769	78.248088	86.141523	0.699696	92.436786	92.436786	92.436786	0.944744	0.720956	2.830000	0.056182	0.032853	52.823366
22.921786	0.002383	0.058552	0.058601	78.374150	88.468737	0.689914	92.327099	92.327099	92.327099	0.927578	0.745219	2.830000	0.055953	0.031989	51.824192
23.251963	0.002452	0.059394	0.059444	78.500212	90.876510	0.680269	92.217843	92.217843	92.217843	0.910898	0.770130	2.830000	0.055738	0.031141	50.768466
23.586897	0.002524	0.060247	0.060300	78.626274	93.365382	0.670760	92.108996	92.108996	92.108996	0.894690	0.795700	2.830000	0.055536	0.030311	49.652712
23.926655	0.002597	0.061112	0.061167	78.752337	95.935145	0.661383	92.000535	92.000535	92.000535	0.878941	0.821939	2.830000	0.055346	0.029499	48.473286
24.271307	0.002672	0.061990	0.062048	78.878405	98.584657	0.652138	91.892438	91.892438	91.892438	0.863641	0.848859	2.830000	0.055170	0.028706	47.226396
24.620924	0.002749	0.062880	0.062940	79.004477	101.311621	0.643023	91.784682	91.784682	91.784682	0.848776	0.876470	2.830000	0.055005	0.027934	45.908119
24.975577	0.002829	0.063783	0.063846	79.130556	104.112330	0.634036	91.677244	91.677244	91.677244	0.834334	0.904784	2.830000	0.054854	0.027182	44.514441
25.335338	0.002911	0.064699	0.064765	79.256642	106.981378	0.625175	91.570102	91.570102	91.570102	0.820305	0.933810	2.830000	0.054714	0.026453	43.041302
25.700282	0.002996	0.065628	0.065697	79.382738	109.911339	0.616439	91.463233	91.463233	91.463233	0.806678	0.963560	2.830000	0.054587	0.025748	41.484659
26.070482	0.003082	0.066571	0.066642	79.508846	112.892423	0.607826	91.356615	91.356615	91.356615	0.793441	0.994044	2.830000	0.054472	0.025068	39.840566
26.446016	0.003172	0.067526	0.067601	79.634965	115.912114	0.599335	91.250224	91.250224	91.250224	0.780584	1.025273	2.830000	0.054369	0.024415	38.105281
26.826958	0.003264	0.068496	0.068573	79.761099	118.954809	0.590963	91.144039	91.144039	91.144039	0.768097	1.057256	2.830000	0.054278	0.023791	36.275381
27.213388	0.003358	0.069479	0.069560	79.887249	122.001487	0.582710	91.038036	91.038036	91.038036	0.755971	1.090003	2.830000	0.054199	0.023196	34.347922
27.605384	0.003456	0.070476	0.070561	80.013415	125.029433	0.574573	90.932192	90.932192	90.932192	0.744195	1.123525	2.830000	0.054132	0.022635	32.320604
28.003026	0.003556	0.071487	0.071576	80.139601	128.012067	0.566552	90.826485	90.826485	90.826485	0.732761	1.157831	2.830000	0.054077	0.022107	30.191973
28.406397	0.003659	0.072513	0.072605	80.265806	130.918927	0.558644	90.720891	90.720891	90.720891	0.721659	1.192930	2.830000	0.054033	0.021616	27.961633
28.815578	0.003765	0.073553	0.073650	80.392034	133.715862	0.550848	90.615387	90.615387	90.615387	0.710880	1.228832	2.830000	0.054001	0.021164	25.630470
29.230652	0.003874	0.074609	0.074709	80.518285	136.365491	0.543163	90.509951	90.509951	90.509951	0.700416	1.265546	2.830000	0.053982	0.020753	23.200871
29.651706	0.003986	0.075679	0.075784	80.644562	138.827976	0.535586	90.404558	90.404558	90.404558	0.690259	1.303079	2.830000	0.053973	0.020385	20.676930
30.078825	0.004102	0.076764	0.076874	80.770865	141.062137	0.528118	90.299186	90.299186	90.299186	0.680400	1.341441	2.830000	0.053977	0.020062	18.064605
30.512097	0.004220	0.077865	0.077979	80.897197	143.026894	0.520755	90.193811	90.193811	90.193811	0.670832	1.380639	2.830000	0.053993	0.019786	15.371820
30.951609	0.004343	0.078981	0.079101	81.023560	144.682996	0.513497	90.088409	90.088409	90.088409	0.661548	1.420681	2.830000	0.054020	0.019560	12.608481
31.397452	0.004469	0.080114	0.080238	81.149954	145.994918	0.506343	89.982958	89.982958	89.982958	0.652538	1.461574	2.830000	0.054059	0.019384	9.786388
31.849718	0.004598	0.081262	0.081392	81.276383	146.932798	0.499290	89.877431	89.877431	89.877431	0.643798	1.503325	2.830000	0.054110	0.019261	6.919036
32.308498	0.004731	0.082427	0.082562	81.402847	147.474200	0.492338	89.771807	89.771807	89.771807	0.635319	1.545940	2.830000	0.054173	0.019190	4.021299
32.773887	0.004868	0.083608	0.083749	81.529348	147.605537	0.485486	89.666060	89.666060	89.666060	0.627095	1.589426	2.830000	0.054249	0.019173	1.109022
33.245979	0.005009	0.084806	0.084954	81.655888	147.322971	0.478731	89.560167	89.560167	89.560167	0.619119	1.633787	2.830000	0.054336	0.019209	-1.801472
33.724872	0.005154	0.086021	0.086175	81.782470	146.632672	0.472072	89.454102	89.454102	89.454102	0.611385	1.679029	2.830000	0.054436	0.019300	-4.693906
34.210663	0.005304	0.087253	0.087414	81.909095	145.550421	0.465509	89.347841	89.347841	89.347841	0.603887	1.725157	2.830000	0.054548	0.019443	-7.552572
34.703452	0.005457	0.088502	0.088670	82.035765	144.100582	0.459040	89.241359	89.241359	89.241359	0.596618	1.772173	2.830000	0.054672	0.019639	-10.362806
35.203338	0.005615	0.089770	0.089945	82.162482	142.314593	0.452664	89.134632	89.134632	89.134632	0.589574	1.820082	2.830000	0.054809	0.019886	-13.111387
35.710426	0.005778	0.091055	0.091238	82.289248	140.229144	0.446379	89.027632	89.027632	89.027632	0.582747	1.868886	2.830000	0.054959	0.020181	-15.786833
36.224818	0.005945	0.092358	0.092549	82.416065	137.884230	0.440184	88.920336	88.920336	88.920336	0.576134	1.918588	2.830000	0.055121	0.020524	-18.379576
36.746619	0.006118	0.093680	0.093879	82.542936	135.321269	0.434078	88.812717	88.812717	88.812717	0.569728	1.969188	2.830000	0.055297	0.020913	-20.882037
37.275937	0.006295	0.095020	0.095228	82.669862	132.581429	0.428060	88.704748	88.704748	88.704748	0.563525	2.020688	2.830000	0.055486	0.021345	-23.288587
37.812880	0.006477	0.096379	0.096597	82.796845	129.704237	0.422128	88.596405	88.596405	88.596405	0.557519	2.073088	2.830000	0.055688	0.021819	-25.595440
38.357556	0.006664	0.097758	0.097985	82.923888	126.726546	0.416282	88.487659	88.487659	88.487659	0.551706	2.126387	2.830000	0.055904	0.022332	-27.800479
38.910079	0.006857	0.099156	0.099393	83.050994	123.681822	0.410521	88.378484	88.378484	88.378484	0.546081	2.180583	2.830000	0.056133	0.022881	-29.903054
39.470560	0.007056	0.100573	0.100821	83.178163	120.599749	0.404842	88.268854	88.268854	88.268854	0.540639	2.235675	2.830000	0.056377	0.023466	-31.903757
40.039115	0.007260	0.102011	0.102269	83.305400	117.506088	0.399245	88.158739	88.158739	88.158739	0.535377	2.291660	2.830000	0.056635	0.024084	-33.804197
40.615860	0.007470	0.103469	0.103738	83.432706	114.422734	0.393730	88.048112	88.048112	88.048112	0.530290	2.348534	2.830000	0.056907	0.024733	-35.606794
41.200912	0.007686	0.104947	0.105228	83.560084	111.367917	0.388294	87.936945	87.936945	87.936945	0.525374	2.406293	2.830000	0.057194	0.025411	-37.314582
41.794392	0.007909	0.106446	0.106739	83.687536	108.356493	0.382936	87.825209	87.825209	87.825209	0.520624	2.464930	2.830000	0.057497	0.026117	-38.931039
42.396421	0.008138	0.107966	0.108272	83.815065	105.400297	0.377657	87.712876	87.712876	87.712876	0.516039	2.524441	2.830000	0.057814	0.026850	-40.459947
43.007121	0.008373	0.109507	0.109827	83.942674	102.508499	0.372454	87.599914	87.599914	87.599914	0.511612	2.584817	2.830000	0.058148	0.027607	-41.905265
43.626619	0.008616	0.111070	0.111404	84.070365	99.687975	0.367327	87.486295	87.486295	87.486295	0.507342	2.646051	2.830000	0.058497	0.028389	-43.271035
44.255040	0.008865	0.112655	0.113003	84.198141	96.943644	0.362274	87.371988	87.371988	87.371988	0.503225	2.708133	2.830000	0.058862	0.029192	-44.561305
44.892513	0.009121	0.114262	0.114626	84.326006	94.278790	0.357295	87.256963	87.256963	87.256963	0.499256	2.771055	2.830000	0.059245	0.030017	-45.780065
45.539168	0.009385	0.115892	0.116271	84.453961	91.695343	0.352388	87.141187	87.141187	87.141187	0.495435	2.834804	2.830000	0.059644	0.030863	-46.931207
46.195138	0.009656	0.117544	0.117940	84.582011	89.194127	0.347553	87.024629	87.024629	87.024629	0.491756	2.899370	2.830000	0.060061	0.031729	-48.018489
46.860558	0.009936	0.119219	0.119632	84.710158	86.775080	0.342789	86.907256	86.907256	86.907256	0.488218	2.964740	2.830000	0.060496	0.032613	-49.045514
47.535562	0.010223	0.120918	0.121349	84.838405	84.437431	0.338094	86.789035	86.789035	86.789035	0.484817	3.030899	2.830000	0.060949	0.033516	-50.015714
48.220290	0.010519	0.122640	0.123090	84.966755	82.179862	0.333468	86.669933	86.669933	86.669933	0.481551	3.097834	2.830000	0.061420	0.034437	-50.932346
48.914880	0.010823	0.124386	0.124856	85.095213	80.000637	0.328910	86.549916	86.549916	86.549916	0.478418	3.165529	2.830000	0.061911	0.035375	-51.798484
49.619476	0.011136	0.126157	0.126647	85.223781	77.897705	0.324419	86.428947	86.428947	86.428947	0.475414	3.233967	2.830000	0.062422	0.036330	-52.617025
50.334221	0.011458	0.127952	0.128464	85.352463	75.868791	0.319993	86.306993	86.306993	86.306993	0.472538	3.303131	2.830000	0.062953	0.037301	-53.390687
51.059262	0.011789	0.129772	0.130306	85.481262	73.911469	0.315633	86.184016	86.184016	86.184016	0.469787	3.373002	2.830000	0.063504	0.038289	-54.122017
51.794747	0.012129	0.131617	0.132175	85.610182	72.023217	0.311337	86.059980	86.059980	86.059980	0.467160	3.443562	2.830000	0.064077	0.039293	-54.813400
52.540826	0.012480	0.133488	0.134070	85.739227	70.201467	0.307105	85.934847	85.934847	85.934847	0.464653	3.514790	2.830000	0.064672	0.040313	-55.467063
53.297652	0.012840	0.135384	0.135992	85.868401	68.443636	0.302935	85.808578	85.808578	85.808578	0.462265	3.586664	2.830000	0.065290	0.041348	-56.085082
54.065379	0.013211	0.137307	0.137941	85.997708	66.747159	0.298827	85.681133	85.681133	85.681133	0.459995	3.659163	2.830000	0.065930	0.042399	-56.669397
54.844166	0.013593	0.139256	0.139918	86.127151	65.109508	0.294779	85.552473	85.552473	85.552473	0.457841	3.732264	2.830000	0.066594	0.043465	-57.221813
55.634170	0.013986	0.141232	0.141923	86.256736	63.528213	0.290792	85.422556	85.422556	85.422556	0.455801	3.805942	2.830000	0.067283	0.044547	-57.744011
56.435554	0.014389	0.143235	0.143956	86.386466	62.000869	0.286864	85.291340	85.291340	85.291340	0.453873	3.880174	2.830000	0.067997	0.045645	-58.237558
57.248482	0.014805	0.145266	0.146019	86.516346	60.525147	0.282995	85.158781	85.158781	85.158781	0.452056	3.954933	2.830000	0.068737	0.046757	-58.703912
58.073119	0.015232	0.147325	0.148110	86.646380	59.098802	0.279183	85.024837	85.024837	85.024837	0.450349	4.030195	2.830000	0.069503	0.047886	-59.144429
58.909635	0.015672	0.149411	0.150231	86.776573	57.719673	0.275428	84.889460	84.889460	84.889460	0.448750	4.105930	2.830000	0.070298	0.049030	-59.560372
59.758201	0.016124	0.151527	0.152382	86.906929	56.385687	0.271730	84.752605	84.752605	84.752605	0.447259	4.182113	2.830000	0.071120	0.050190	-59.952916
60.618990	0.016589	0.153671	0.154563	87.037455	55.094861	0.268086	84.614225	84.614225	84.614225	0.445874	4.258714	2.830000	0.071972	0.051366	-60.323155
61.492178	0.017068	0.155844	0.156776	87.168153	53.845297	0.264498	84.474270	84.474270	84.474270	0.444595	4.335704	2.830000	0.072853	0.052558	-60.672106
62.377944	0.017560	0.158047	0.159019	87.299031	52.635185	0.260964	84.332690	84.332690	84.332690	0.443420	4.413055	2.830000	0.073766	0.053766	-61.000717
63.276469	0.018067	0.160279	0.161294	87.430093	51.462800	0.257483	84.189434	84.189434	84.189434	0.442349	4.490735	2.830000	0.074711	0.054991	-61.309868
64.187937	0.018588	0.162542	0.163602	87.561344	50.326498	0.254054	84.044448	84.044448	84.044448	0.441381	4.568714	2.830000	0.075689	0.056233	-61.600380
65.112534	0.019124	0.164836	0.165941	87.692790	49.224714	0.250678	83.897679	83.897679	83.897679	0.440516	4.646961	2.830000	0.076702	0.057491	-61.873016
66.050449	0.019675	0.167160	0.168314	87.824437	48.155960	0.247352	83.749071	83.749071	83.749071	0.439754	4.725444	2.830000	0.077749	0.058767	-62.128487
67.001875	0.020242	0.169516	0.170720	87.956291	47.118822	0.244077	83.598566	83.598566	83.598566	0.439093	4.804131	2.830000	0.078833	0.060061	-62.367451
67.967006	0.020825	0.171904	0.173161	88.088357	46.111954	0.240853	83.446105	83.446105	83.446105	0.438533	4.882990	2.830000	0.079955	0.061372	-62.590525
68.946038	0.021425	0.174323	0.175635	88.220642	45.134078	0.237677	83.291628	83.291628	83.291628	0.438075	4.961988	2.830000	0.081115	0.062702	-62.798280
69.939174	0.022042	0.176775	0.178144	88.353153	44.183980	0.234550	83.135070	83.135070	83.135070	0.437719	5.041092	2.830000	0.082316	0.064050	-62.991245
70.946615	0.022677	0.179260	0.180688	88.485895	43.260507	0.231471	82.976368	82.976368	82.976368	0.437463	5.120270	2.830000	0.083559	0.065418	-63.169916
71.968567	0.023330	0.181777	0.183268	88.618875	42.362562	0.228440	82.815456	82.815456	82.815456	0.437310	5.199487	2.830000	0.084844	0.066804	-63.334749
73.005241	0.024001	0.184329	0.185885	88.752101	41.489103	0.225455	82.652264	82.652264	82.652264	0.437258	5.278712	2.830000	0.086174	0.068211	-63.486170
74.056847	0.024692	0.186914	0.188538	88.885578	40.639142	0.222517	82.486721	82.486721	82.486721	0.437308	5.357910	2.830000	0.087550	0.069637	-63.624572
75.123601	0.025402	0.189533	0.191228	89.019315	39.811737	0.219624	82.318755	82.318755	82.318755	0.437461	5.437049	2.830000	0.088974	0.071085	-63.750320
76.205721	0.026133	0.192187	0.193955	89.153319	39.005995	0.216776	82.148289	82.148289	82.148289	0.437717	5.516095	2.830000	0.090447	0.072553	-63.863751
77.303429	0.026884	0.194875	0.196721	89.287597	38.221065	0.213972	81.975247	81.975247	81.975247	0.438077	5.595015	2.830000	0.091971	0.074043	-63.965176
78.416948	0.027657	0.197599	0.199525	89.422157	37.456140	0.211213	81.799546	81.799546	81.799546	0.438542	5.673777	2.830000	0.093549	0.075555	-64.054880
79.546508	0.028452	0.200359	0.202369	89.557008	36.710452	0.208497	81.621104	81.621104	81.621104	0.439112	5.752347	2.830000	0.095181	0.077090	-64.133128
80.692338	0.029269	0.203154	0.205252	89.692156	35.983267	0.205823	81.439835	81.439835	81.439835	0.439789	5.830694	2.830000	0.096870	0.078648	-64.200161
81.854673	0.030110	0.205986	0.208175	89.827610	35.273891	0.203192	81.255648	81.255648	81.255648	0.440574	5.908786	2.830000	0.098618	0.080229	-64.256198
83.033751	0.030975	0.208855	0.211139	89.963380	34.581660	0.200603	81.068452	81.068452	81.068452	0.441468	5.986591	2.830000	0.100428	0.081835	-64.301440
84.229813	0.031864	0.211761	0.214144	90.099473	33.905944	0.198055	80.878152	80.878152	80.878152	0.442472	6.064077	2.830000	0.102300	0.083466	-64.336068
85.443104	0.032778	0.214704	0.217191	90.235899	33.246141	0.195547	80.684647	80.684647	80.684647	0.443587	6.141215	2.830000	0.104239	0.085123	-64.360245
86.673872	0.033719	0.217684	0.220280	90.372667	32.601679	0.193080	80.487835	80.487835	80.487835	0.444817	6.217975	2.830000	0.106246	0.086805	-64.374117
87.922369	0.034685	0.220703	0.223412	90.509785	31.972011	0.190653	80.287609	80.287609	80.287609	0.446162	6.294325	2.830000	0.108324	0.088515	-64.377812
89.188849	0.035680	0.223760	0.226587	90.647264	31.356617	0.188264	80.083860	80.083860	80.083860	0.447624	6.370239	2.830000	0.110475	0.090252	-64.371443
90.473572	0.036702	0.226856	0.229806	90.785114	30.755000	0.185915	79.876472	79.876472	79.876472	0.449205	6.445687	2.830000	0.112703	0.092018	-64.355107
91.776802	0.037754	0.229991	0.233069	90.923344	30.166687	0.183604	79.665326	79.665326	79.665326	0.450908	6.520641	2.830000	0.115011	0.093812	-64.328886
93.098803	0.038835	0.233166	0.236378	91.061964	29.591224	0.181330	79.450299	79.450299	79.450299	0.452735	6.595076	2.830000	0.117401	0.095636	-64.292847
94.439848	0.039946	0.236380	0.239732	91.200986	29.028181	0.179094	79.231262	79.231262	79.231262	0.454688	6.668964	2.830000	0.119877	0.097491	-64.247043
95.800210	0.041089	0.239634	0.243132	91.340419	28.477144	0.176895	79.008081	79.008081	79.008081	0.456771	6.742280	2.830000	0.122442	0.099378	-64.191512
97.180167	0.042265	0.242929	0.246578	91.480274	27.937720	0.174732	78.780619	78.780619	78.780619	0.458985	6.815001	2.830000	0.125100	0.101297	-64.126280
98.580001	0.043473	0.246264	0.250072	91.620562	27.409532	0.172606	78.548730	78.548730	78.548730	0.461335	6.887101	2.830000	0.127854	0.103249	-64.051358
100.000000	0.044715	0.249641	0.253614	91.761295	26.892221	0.170515	78.312265	78.312265	78.312265	0.463823	6.958558	2.830000	0.130709	0.105235	-63.966743
101.440453	0.045993	0.253058	0.257204	91.902484	26.385442	0.168459	78.071066	78.071066	78.071066	0.466452	7.029350	2.830000	0.133668	0.107256	-63.872421
102.901655	0.047306	0.256517	0.260843	92.044140	25.888867	0.166438	77.824972	77.824972	77.824972	0.469227	7.099456	2.830000	0.136736	0.109313	-63.768364
104.383905	0.048656	0.260018	0.264531	92.186276	25.402180	0.164452	77.573813	77.573813	77.573813	0.472150	7.168856	2.830000	0.139918	0.111408	-63.654530
105.887506	0.050044	0.263561	0.268270	92.328902	24.925080	0.162499	77.317412	77.317412	77.317412	0.475227	7.237530	2.830000	0.143217	0.113540	-63.530864
107.412766	0.051471	0.267146	0.272059	92.472032	24.457280	0.160581	77.055585	77.055585	77.055585	0.478461	7.305460	2.830000	0.146639	0.115712	-63.397299
108.959997	0.052937	0.270773	0.275900	92.615677	23.998503	0.158695	76.788141	76.788141	76.788141	0.481857	7.372628	2.830000	0.150190	0.117924	-63.253753
110.529514	0.054445	0.274444	0.279792	92.759850	23.548485	0.156842	76.514879	76.514879	76.514879	0.485418	7.439017	2.830000	0.153873	0.120178	-63.100134
112.121640	0.055995	0.278157	0.283737	92.904563	23.106974	0.155022	76.235589	76.235589	76.235589	0.489152	7.504613	2.830000	0.157697	0.122474	-62.936332
113.736699	0.057588	0.281914	0.287735	93.049829	22.673728	0.153233	75.950056	75.950056	75.950056	0.493061	7.569400	2.830000	0.161665	0.124814	-62.762227
115.375023	0.059225	0.285714	0.291787	93.195661	22.248515	0.151477	75.658050	75.658050	75.658050	0.497153	7.633365	2.830000	0.165785	0.127200	-62.577683
117.036946	0.060908	0.289557	0.295894	93.342070	21.831113	0.149751	75.359334	75.359334	75.359334	0.501431	7.696494	2.830000	0.170062	0.129632	-62.382551
118.722808	0.062637	0.293444	0.300055	93.489070	21.421311	0.148057	75.053659	75.053659	75.053659	0.505903	7.758776	2.830000	0.174505	0.132111	-62.176667
120.432955	0.064415	0.297375	0.304271	93.636674	21.018904	0.146393	74.740767	74.740767	74.740767	0.510575	7.820199	2.830000	0.179120	0.134641	-61.959852
122.167735	0.066242	0.301350	0.308544	93.784893	20.623699	0.144760	74.420387	74.420387	74.420387	0.515453	7.880754	2.830000	0.183914	0.137221	-61.731913
123.927504	0.068119	0.305368	0.312874	93.933741	20.235510	0.143156	74.092234	74.092234	74.092234	0.520544	7.940431	2.830000	0.188897	0.139853	-61.492638
125.712621	0.070049	0.309431	0.317261	94.083229	19.854159	0.141582	73.756012	73.756012	73.756012	0.525854	7.999222	2.830000	0.194075	0.142539	-61.241803
127.523453	0.072031	0.313538	0.321706	94.233370	19.479475	0.140037	73.411411	73.411411	73.411411	0.531392	8.057119	2.830000	0.199458	0.145281	-60.979166
129.360368	0.074069	0.317689	0.326209	94.384176	19.111297	0.138521	73.058107	73.058107	73.058107	0.537165	8.114116	2.830000	0.205055	0.148080	-60.704465
131.223743	0.076162	0.321885	0.330772	94.535658	18.749469	0.137034	72.695759	72.695759	72.695759	0.543182	8.170206	2.830000	0.210876	0.150938	-60.417425
133.113960	0.078313	0.326124	0.335395	94.687827	18.393843	0.135575	72.324013	72.324013	72.324013	0.549449	8.225385	2.830000	0.216931	0.153856	-60.117749
135.031404	0.080522	0.330407	0.340078	94.840693	18.044279	0.134143	71.942496	71.942496	71.942496	0.555977	8.279648	2.830000	0.223230	0.156836	-59.805121
136.976468	0.082792	0.334735	0.344822	94.994267	17.700641	0.132739	71.550819	71.550819	71.550819	0.562775	8.332991	2.830000	0.229784	0.159881	-59.479208
138.949549	0.085125	0.339106	0.349627	95.148558	17.362803	0.131362	71.148572	71.148572	71.148572	0.569851	8.385412	2.830000	0.236606	0.162992	-59.139654
140.951052	0.087520	0.343522	0.354495	95.303574	17.030643	0.130012	70.735330	70.735330	70.735330	0.577215	8.436909	2.830000	0.243707	0.166171	-58.786081
142.981386	0.089981	0.347980	0.359426	95.459322	16.704046	0.128688	70.310643	70.310643	70.310643	0.584878	8.487480	2.830000	0.251101	0.169420	-58.418091
145.040966	0.092509	0.352483	0.364420	95.615809	16.382904	0.127389	69.874043	69.874043	69.874043	0.592850	8.537125	2.830000	0.258800	0.172741	-58.035261
147.130213	0.095106	0.357028	0.369478	95.773040	16.067113	0.126117	69.425038	69.425038	69.425038	0.601141	8.585842	2.830000	0.266818	0.176136	-57.637145
149.249555	0.097772	0.361616	0.374601	95.931018	15.756578	0.124869	68.963114	68.963114	68.963114	0.609763	8.633634	2.830000	0.275171	0.179608	-57.223271
151.399424	0.100511	0.366247	0.379789	96.089745	15.451208	0.123647	68.487732	68.487732	68.487732	0.618727	8.680500	2.830000	0.283873	0.183157	-56.793142
153.580262	0.103324	0.370920	0.385042	96.249220	15.150919	0.122448	67.998326	67.998326	67.998326	0.628044	8.726442	2.830000	0.292940	0.186787	-56.346233
155.792513	0.106212	0.375635	0.390362	96.409442	14.855631	0.121274	67.494305	67.494305	67.494305	0.637726	8.771462	2.830000	0.302389	0.190500	-55.881991
158.036631	0.109177	0.380391	0.395748	96.570406	14.565274	0.120122	66.975050	66.975050	66.975050	0.647785	8.815563	2.830000	0.312237	0.194298	-55.399835
160.313075	0.112222	0.385188	0.401202	96.732103	14.279779	0.118994	66.439913	66.439913	66.439913	0.658233	8.858748	2.830000	0.322502	0.198182	-54.899153
162.622309	0.115348	0.390025	0.406724	96.894524	13.999086	0.117887	65.888216	65.888216	65.888216	0.669082	8.901020	2.830000	0.333202	0.202156	-54.379300
164.964807	0.118557	0.394902	0.412314	97.057654	13.723141	0.116803	65.319249	65.319249	65.319249	0.680344	8.942383	2.830000	0.344355	0.206221	-53.839602
167.341048	0.121852	0.399818	0.417974	97.221475	13.451896	0.115740	64.732271	64.732271	64.732271	0.692031	8.982842	2.830000	0.355982	0.210379	-53.279350
169.751517	0.125233	0.404772	0.423702	97.385965	13.185309	0.114697	64.126507	64.126507	64.126507	0.704154	9.022400	2.830000	0.368102	0.214633	-52.697801
172.196708	0.128704	0.409764	0.429501	97.551095	12.923343	0.113674	63.501150	63.501150	63.501150	0.716725	9.061063	2.830000	0.380737	0.218984	-52.094176
174.677121	0.132266	0.414792	0.435370	97.716834	12.665970	0.112670	62.855354	62.855354	62.855354	0.729755	9.098837	2.830000	0.393905	0.223433	-51.467663
177.193263	0.135922	0.419856	0.441309	97.883143	12.413167	0.111684	62.188243	62.188243	62.188243	0.743252	9.135725	2.830000	0.407630	0.227984	-50.817412
179.745648	0.139673	0.424955	0.447320	98.049975	12.164918	0.110716	61.498900	61.498900	61.498900	0.757227	9.171735	2.830000	0.421930	0.232636	-50.142536
182.334800	0.143523	0.430088	0.453403	98.217278	11.921214	0.109764	60.786376	60.786376	60.786376	0.771687	9.206872	2.830000	0.436828	0.237392	-49.442111
184.961247	0.147472	0.435253	0.459558	98.384990	11.682054	0.108828	60.049683	60.049683	60.049683	0.786638	9.241142	2.830000	0.452343	0.242252	-48.715179
187.625527	0.151523	0.440450	0.465785	98.553041	11.447442	0.107906	59.287801	59.287801	59.287801	0.802085	9.274552	2.830000	0.468496	0.247217	-47.960744
190.328185	0.155679	0.445677	0.472085	98.721351	11.217393	0.106998	58.499673	58.499673	58.499673	0.818029	9.307107	2.830000	0.485305	0.252287	-47.177775
193.069773	0.159942	0.450933	0.478458	98.889828	10.991927	0.106102	57.684209	57.684209	57.684209	0.834471	9.338815	2.830000	0.502789	0.257462	-46.365209
195.850852	0.164313	0.456216	0.484904	99.058368	10.771073	0.105216	56.840289	56.840289	56.840289	0.851406	9.369681	2.830000	0.520962	0.262741	-45.521949
198.671992	0.168797	0.461525	0.491425	99.226855	10.554869	0.104340	55.966766	55.966766	55.966766	0.868828	9.399713	2.830000	0.539840	0.268123	-44.646872
201.533769	0.173394	0.466859	0.498019	99.395158	10.343361	0.103471	55.062465	55.062465	55.062465	0.886723	9.428917	2.830000	0.559433	0.273605	-43.738828
204.436768	0.178107	0.472215	0.504687	99.563130	10.136602	0.102608	54.126194	54.126194	54.126194	0.905077	9.457300	2.830000	0.579749	0.279186	-42.796649
207.381584	0.182940	0.477592	0.511430	99.730607	9.934658	0.101750	53.156746	53.156746	53.156746	0.923865	9.484868	2.830000	0.600791	0.284861	-41.819151
210.368818	0.187893	0.482987	0.518247	99.897408	9.737601	0.100893	52.152906	52.152906	52.152906	0.943060	9.511629	2.830000	0.622559	0.290626	-40.805144
213.399082	0.192969	0.488399	0.525139	100.063331	9.545514	0.100036	51.113462	51.113462	51.113462	0.962624	9.537588	2.830000	0.645043	0.296474	-39.753436
216.472995	0.198172	0.493826	0.532106	100.228153	9.358489	0.099177	50.037210	50.037210	50.037210	0.982513	9.562752	2.830000	0.668231	0.302399	-38.662850
219.591187	0.203503	0.499266	0.539147	100.391629	9.176629	0.098312	48.922972	48.922972	48.922972	1.002672	9.587127	2.830000	0.692100	0.308392	-37.532229
222.754295	0.208966	0.504715	0.546264	100.553492	9.000044	0.097440	47.769604	47.769604	47.769604	1.023036	9.610720	2.830000	0.716618	0.314443	-36.360453
225.962966	0.214561	0.510172	0.553455	100.713448	8.828858	0.096557	46.576016	46.576016	46.576016	1.043531	9.633537	2.830000	0.741743	0.320540	-35.146454
229.217857	0.220293	0.515634	0.560721	100.871179	8.663202	0.095661	45.341186	45.341186	45.341186	1.064067	9.655584	2.830000	0.767421	0.326669	-33.889235
232.519632	0.226163	0.521098	0.568061	101.026340	8.503217	0.094749	44.064184	44.064184	44.064184	1.084544	9.676866	2.830000	0.793585	0.332815	-32.587889
235.868968	0.232174	0.526562	0.575475	101.178559	8.349053	0.093816	42.744189	42.744189	42.744189	1.104848	9.697388	2.830000	0.820154	0.338961	-31.241620
239.266550	0.238328	0.532022	0.582964	101.327438	8.200872	0.092860	41.380519	41.380519	41.380519	1.124848	9.717157	2.830000	0.847030	0.345085	-29.849769
242.713072	0.244628	0.537475	0.590527	101.472552	8.058839	0.091877	39.972653	39.972653	39.972653	1.144401	9.736177	2.830000	0.874100	0.351167	-28.411841
246.209240	0.251076	0.542918	0.598163	101.613449	7.923132	0.090864	38.520261	38.520261	38.520261	1.163350	9.754454	2.830000	0.901231	0.357182	-26.927529
249.755769	0.257675	0.548347	0.605872	101.749657	7.793931	0.089817	37.023232	37.023232	37.023232	1.181523	9.771990	2.830000	0.928276	0.363103	-25.396750
253.353383	0.264427	0.553759	0.613653	101.880678	7.671424	0.088732	35.481706	35.481706	35.481706	1.198735	9.788791	2.830000	0.955065	0.368902	-23.819668
257.002820	0.271334	0.559150	0.621507	102.005998	7.555802	0.087606	33.896100	33.896100	33.896100	1.214792	9.804861	2.830000	0.981415	0.374547	-22.196729
260.704825	0.278399	0.564516	0.629432	102.125087	7.447259	0.086437	32.267142	32.267142	32.267142	1.229488	9.820202	2.830000	1.007123	0.380006	-20.528687
264.460155	0.285624	0.569854	0.637428	102.237408	7.345988	0.085220	30.595891	30.595891	30.595891	1.242613	9.834818	2.830000	1.031974	0.385244	-18.816630
268.269580	0.293011	0.575158	0.645494	102.342415	7.252182	0.083952	28.883768	28.883768	28.883768	1.253956	9.848712	2.830000	1.055739	0.390227	-17.062008
272.133877	0.300563	0.580424	0.653628	102.439570	7.166029	0.082633	27.132569	27.132569	27.132569	1.263306	9.861885	2.830000	1.078180	0.394919	-15.266645
276.053838	0.308281	0.585648	0.661831	102.528342	7.087711	0.081260	25.344478	25.344478	25.344478	1.270461	9.874340	2.830000	1.099058	0.399283	-13.432759
280.030263	0.316167	0.590825	0.670102	102.608217	7.017399	0.079831	23.522078	23.522078	23.522078	1.275232	9.886079	2.830000	1.118129	0.403283	-11.562963
284.063968	0.324224	0.595950	0.678438	102.678710	6.955257	0.078347	21.668339	21.668339	21.668339	1.277447	9.897101	2.830000	1.135161	0.406886	-9.660261
288.155776	0.332452	0.601018	0.686839	102.739370	6.901429	0.076807	19.786615	19.786615	19.786615	1.276959	9.907407	2.830000	1.149930	0.410060	-7.728040
292.306525	0.340855	0.606023	0.695303	102.789789	6.856047	0.075213	17.880614	17.880614	17.880614	1.273652	9.916998	2.830000	1.162233	0.412774	-5.770045
296.517063	0.349433	0.610960	0.703830	102.829614	6.819221	0.073566	15.954368	15.954368	15.954368	1.267442	9.925872	2.830000	1.171891	0.415003	-3.790343
300.788252	0.358189	0.615824	0.712417	102.858548	6.791041	0.071868	14.012188	14.012188	14.012188	1.258288	9.934029	2.830000	1.178756	0.416726	-1.793286
305.120965	0.367122	0.620607	0.721063	102.876363	6.771573	0.070124	12.058617	12.058617	12.058617	1.246188	9.941466	2.830000	1.182715	0.417924	0.216545
309.516090	0.376235	0.625305	0.729766	102.882900	6.760859	0.068337	10.098363	10.098363	10.098363	1.231183	9.948181	2.830000	1.183697	0.418586	2.234400
313.974523	0.385529	0.629910	0.738525	102.878077	6.758914	0.066513	8.136238	8.136238	8.136238	1.213360	9.954171	2.830000	1.181672	0.418706	4.255425
318.497179	0.395004	0.634416	0.747337	102.861888	6.765730	0.064657	6.177084	6.177084	6.177084	1.192845	9.959432	2.830000	1.176654	0.418284	6.274731
323.084981	0.404662	0.638817	0.756200	102.834404	6.781270	0.062775	4.225706	4.225706	4.225706	1.169806	9.963960	2.830000	1.168699	0.417326	8.287468
327.738869	0.414502	0.643105	0.765111	102.795769	6.805473	0.060873	2.286801	2.286801	2.286801	1.144443	9.967750	2.830000	1.157908	0.415842	10.288888
332.459793	0.424526	0.647273	0.774070	102.746201	6.838254	0.058958	0.364891	0.364891	0.364891	1.116985	9.970794	2.830000	1.144418	0.413848	12.274420
337.248720	0.434732	0.651314	0.783072	102.685982	6.879502	0.057038	-1.535735	-1.535735	-1.535735	1.087685	9.973088	2.830000	1.128399	0.411367	14.239722
342.106630	0.445122	0.655220	0.792116	102.615453	6.929089	0.055119	-3.411077	-3.411077	-3.411077	1.056809	9.974623	2.830000	1.110052	0.408423	16.180738
347.034515	0.455694	0.658984	0.801197	102.535008	6.986866	0.053207	-5.257461	-5.257461	-5.257461	1.024634	9.975391	2.830000	1.089595	0.405046	18.093735
352.033384	0.466448	0.662598	0.810314	102.445085	7.052667	0.051309	-7.071578	-7.071578	-7.071578	0.991438	9.975382	2.830000	1.067268	0.401267	19.975344
357.104260	0.477383	0.666053	0.819464	102.346154	7.126312	0.049432	-8.850499	-8.850499	-8.850499	0.957493	9.974587	2.830000	1.043314	0.397120	21.822575
362.248179	0.488498	0.669341	0.828642	102.238714	7.207610	0.047580	-10.591697	-10.591697	-10.591697	0.923064	9.972994	2.830000	1.017982	0.392641	23.632833
367.466194	0.499790	0.672453	0.837845	102.123279	7.296363	0.045759	-12.293041	-12.293041	-12.293041	0.888399	9.970592	2.830000	0.991520	0.387864	25.403918
372.759372	0.511259	0.675381	0.847069	102.000373	7.392364	0.043974	-13.952795	-13.952795	-13.952795	0.853728	9.967366	2.830000	0.964165	0.382827	27.134024
378.128796	0.522902	0.678116	0.856311	101.870524	7.495404	0.042228	-15.569604	-15.569604	-15.569604	0.819262	9.963303	2.830000	0.936146	0.377565	28.821721
383.575563	0.534716	0.680649	0.865566	101.734252	7.605271	0.040525	-17.142478	-17.142478	-17.142478	0.785188	9.958388	2.830000	0.907675	0.372110	30.465940
389.100789	0.546699	0.682970	0.874830	101.592070	7.721754	0.038868	-18.670763	-18.670763	-18.670763	0.751671	9.952604	2.830000	0.878951	0.366497	32.065945
394.705603	0.558846	0.685071	0.884099	101.444473	7.844646	0.037259	-20.154117	-20.154117	-20.154117	0.718852	9.945933	2.830000	0.850151	0.360756	33.621312
400.391152	0.571153	0.686941	0.893367	101.291937	7.973741	0.035700	-21.592486	-21.592486	-21.592486	0.686851	9.938357	2.830000	0.821436	0.354915	35.131894
406.158599	0.583617	0.688572	0.902630	101.134918	8.108841	0.034191	-22.986065	-22.986065	-22.986065	0.655763	9.929855	2.830000	0.792945	0.349002	36.597796
412.009123	0.596233	0.689953	0.911882	100.973845	8.249754	0.032734	-24.335275	-24.335275	-24.335275	0.625666	9.920406	2.830000	0.764803	0.343041	38.019344
417.943921	0.608995	0.691075	0.921119	100.809121	8.396292	0.031330	-25.640733	-25.640733	-25.640733	0.596619	9.909986	2.830000	0.737112	0.337054	39.397053
423.964207	0.621896	0.691928	0.930333	100.641123	8.548280	0.029977	-26.903222	-26.903222	-26.903222	0.568665	9.898573	2.830000	0.709960	0.331061	40.731603
430.071212	0.634932	0.692502	0.939520	100.470199	8.705549	0.028677	-28.123667	-28.123667	-28.123667	0.541829	9.886139	2.830000	0.683420	0.325080	42.023808
436.266186	0.648095	0.692787	0.948673	100.296670	8.867939	0.027428	-29.303110	-29.303110	-29.303110	0.516127	9.872657	2.830000	0.657548	0.319127	43.274598
442.550395	0.661377	0.692773	0.957786	100.120830	9.035299	0.026229	-30.442685	-30.442685	-30.442685	0.491563	9.858099	2.830000	0.632389	0.313216	44.484991
448.925126	0.674770	0.692451	0.966852	99.942944	9.207490	0.025080	-31.543606	-31.543606	-31.543606	0.468129	9.842434	2.830000	0.607976	0.307358	45.656076
455.391681	0.688265	0.691811	0.975864	99.763255	9.384378	0.023979	-32.607141	-32.607141	-32.607141	0.445814	9.825629	2.830000	0.584332	0.301565	46.788995
461.951385	0.701853	0.690842	0.984815	99.581979	9.565843	0.022925	-33.634599	-33.634599	-33.634599	0.424595	9.807652	2.830000	0.561471	0.295844	47.884927
468.605578	0.715523	0.689536	0.993697	99.399310	9.751771	0.021917	-34.627321	-34.627321	-34.627321	0.404448	9.788465	2.830000	0.539400	0.290204	48.945074
475.355621	0.729266	0.687883	1.002502	99.215417	9.942058	0.020952	-35.586662	-35.586662	-35.586662	0.385344	9.768031	2.830000	0.518118	0.284649	49.970650
482.202895	0.743069	0.685873	1.011223	99.030451	10.136610	0.020031	-36.513984	-36.513984	-36.513984	0.367250	9.746310	2.830000	0.497622	0.279186	50.962870
489.148802	0.756920	0.683498	1.019852	98.844542	10.335340	0.019151	-37.410648	-37.410648	-37.410648	0.350131	9.723262	2.830000	0.477900	0.273818	51.922944
496.194760	0.770806	0.680750	1.028378	98.657803	10.538169	0.018310	-38.278008	-38.278008	-38.278008	0.333951	9.698842	2.830000	0.458939	0.268548	52.852066
503.342213	0.784714	0.677619	1.036795	98.470327	10.745029	0.017507	-39.117400	-39.117400	-39.117400	0.318673	9.673004	2.830000	0.440723	0.263378	53.751412
510.592621	0.798629	0.674098	1.045091	98.282193	10.955856	0.016741	-39.930144	-39.930144	-39.930144	0.304260	9.645702	2.830000	0.423233	0.258309	54.622135
517.947468	0.812536	0.670179	1.053259	98.093465	11.170596	0.016010	-40.717538	-40.717538	-40.717538	0.290673	9.616885	2.830000	0.406449	0.253344	55.465357
525.408258	0.826418	0.665856	1.061288	97.904192	11.389201	0.015312	-41.480853	-41.480853	-41.480853	0.277876	9.586502	2.830000	0.390349	0.248481	56.282173
532.976517	0.840261	0.661121	1.069167	97.714412	11.611630	0.014646	-42.221333	-42.221333	-42.221333	0.265832	9.554498	2.830000	0.374911	0.243721	57.073643
540.653794	0.854045	0.655969	1.076888	97.524149	11.837849	0.014011	-42.940193	-42.940193	-42.940193	0.254505	9.520817	2.830000	0.360110	0.239064	57.840795
548.441658	0.867752	0.650395	1.084439	97.333417	12.067831	0.013405	-43.638619	-43.638619	-43.638619	0.243860	9.485401	2.830000	0.345924	0.234508	58.584619
556.341702	0.881364	0.644393	1.091809	97.142219	12.301552	0.012827	-44.317762	-44.317762	-44.317762	0.233864	9.448189	2.830000	0.332329	0.230052	59.306071
564.355543	0.894862	0.637962	1.098987	96.950548	12.538998	0.012275	-44.978747	-44.978747	-44.978747	0.224483	9.409118	2.830000	0.319301	0.225696	60.006072
572.484820	0.908223	0.631096	1.105962	96.758390	12.780159	0.011749	-45.622663	-45.622663	-45.622663	0.215686	9.368123	2.830000	0.306818	0.221437	60.685504
580.731195	0.921428	0.623796	1.112722	96.565719	13.025028	0.011246	-46.250569	-46.250569	-46.250569	0.207442	9.325138	2.830000	0.294857	0.217274	61.345218
589.096355	0.934455	0.616059	1.119256	96.372504	13.273606	0.010767	-46.863495	-46.863495	-46.863495	0.199723	9.280094	2.830000	0.283395	0.213205	61.986027
597.582011	0.947280	0.607887	1.125551	96.178705	13.525900	0.010309	-47.462435	-47.462435	-47.462435	0.192500	9.232920	2.830000	0.272412	0.209228	62.608709
606.189899	0.959882	0.599279	1.131596	95.984275	13.781918	0.009872	-48.048356	-48.048356	-48.048356	0.185747	9.183545	2.830000	0.261886	0.205342	63.214010
614.921780	0.972236	0.590240	1.137377	95.789161	14.041677	0.009455	-48.622193	-48.622193	-48.622193	0.179437	9.131893	2.830000	0.251796	0.201543	63.802643
623.779440	0.984318	0.580773	1.142882	95.593303	14.305195	0.009057	-49.184850	-49.184850	-49.184850	0.173545	9.077891	2.830000	0.242125	0.197830	64.375289
632.764690	0.996104	0.570883	1.148099	95.396636	14.572496	0.008677	-49.737200	-49.737200	-49.737200	0.168049	9.021461	2.830000	0.232853	0.194201	64.932598
641.879368	1.007569	0.560577	1.153015	95.199088	14.843611	0.008314	-50.280090	-50.280090	-50.280090	0.162924	8.962528	2.830000	0.223961	0.190654	65.475190
651.125339	1.018688	0.549864	1.157617	95.000583	15.118570	0.007967	-50.814331	-50.814331	-50.814331	0.158150	8.901013	2.830000	0.215433	0.187187	66.003656
660.504493	1.029435	0.538753	1.161892	94.801038	15.397411	0.007635	-51.340710	-51.340710	-51.340710	0.153704	8.836840	2.830000	0.207253	0.183797	66.518559
670.018750	1.039785	0.527257	1.165827	94.600367	15.680175	0.007318	-51.859978	-51.859978	-51.859978	0.149567	8.769931	2.830000	0.199404	0.180483	67.020435
679.670056	1.049712	0.515388	1.169410	94.398478	15.966908	0.007015	-52.372860	-52.372860	-52.372860	0.145718	8.700209	2.830000	0.191872	0.177242	67.509792
689.460384	1.059191	0.503162	1.172628	94.195277	16.257657	0.006725	-52.880048	-52.880048	-52.880048	0.142139	8.627602	2.830000	0.184643	0.174072	67.987116
699.391737	1.068196	0.490596	1.175469	93.990663	16.552477	0.006448	-53.382201	-53.382201	-53.382201	0.138812	8.552035	2.830000	0.177702	0.170971	68.452864
709.466146	1.076703	0.477709	1.177920	93.784534	16.851425	0.006183	-53.879949	-53.879949	-53.879949	0.135717	8.473439	2.830000	0.171036	0.167938	68.907474
719.685673	1.084688	0.464523	1.179970	93.576783	17.154560	0.005929	-54.373885	-54.373885	-54.373885	0.132839	8.391747	2.830000	0.164634	0.164971	69.351356
730.052407	1.092126	0.451061	1.181607	93.367300	17.461947	0.005686	-54.864571	-54.864571	-54.864571	0.130159	8.306899	2.830000	0.158484	0.162067	69.784903
740.568469	1.098994	0.437347	1.182819	93.155974	17.773654	0.005453	-55.352532	-55.352532	-55.352532	0.127662	8.218837	2.830000	0.152574	0.159224	70.208481
751.236010	1.105271	0.423410	1.183596	92.942690	18.089752	0.005231	-55.838255	-55.838255	-55.838255	0.125330	8.127512	2.830000	0.146895	0.156442	70.622439
762.057212	1.110936	0.409278	1.183929	92.727334	18.410317	0.005017	-56.322191	-56.322191	-56.322191	0.123149	8.032881	2.830000	0.141435	0.153718	71.027104
773.034288	1.115970	0.394984	1.183808	92.509787	18.735426	0.004813	-56.804749	-56.804749	-56.804749	0.121102	7.934910	2.830000	0.136186	0.151051	71.422783
784.169484	1.120354	0.380561	1.183224	92.289934	19.065160	0.004617	-57.286300	-57.286300	-57.286300	0.119175	7.833576	2.830000	0.131138	0.148438	71.809766
795.465078	1.124073	0.366044	1.182171	92.067657	19.399606	0.004429	-57.767168	-57.767168	-57.767168	0.117353	7.728865	2.830000	0.126283	0.145879	72.188320
806.923378	1.127111	0.351471	1.180641	91.842841	19.738848	0.004249	-58.247635	-58.247635	-58.247635	0.115620	7.620777	2.830000	0.121613	0.143372	72.558699
818.546731	1.129459	0.336883	1.178629	91.615372	20.082979	0.004076	-58.727935	-58.727935	-58.727935	0.113962	7.509327	2.830000	0.117120	0.140915	72.921137
830.337512	1.131104	0.322319	1.176132	91.385138	20.432089	0.003910	-59.208255	-59.208255	-59.208255	0.112367	7.394543	2.830000	0.112797	0.138508	73.275851
842.298134	1.132042	0.307824	1.173147	91.152035	20.786275	0.003751	-59.688732	-59.688732	-59.688732	0.110819	7.276472	2.830000	0.108637	0.136148	73.623042
854.431043	1.132267	0.293442	1.169674	90.915959	21.145632	0.003598	-60.169450	-60.169450	-60.169450	0.109306	7.155178	2.830000	0.104633	0.133834	73.962896
866.738721	1.131779	0.279219	1.165713	90.676817	21.510260	0.003451	-60.650443	-60.650443	-60.650443	0.107815	7.030744	2.830000	0.100780	0.131565	74.295583
879.223685	1.130581	0.265202	1.161268	90.434521	21.880259	0.003311	-61.131689	-61.131689	-61.131689	0.106334	6.903275	2.830000	0.097071	0.129340	74.621260
891.888489	1.128677	0.251439	1.156345	90.188993	22.255729	0.003175	-61.613114	-61.613114	-61.613114	0.104851	6.772899	2.830000	0.093502	0.127158	74.940070
904.735724	1.126077	0.237981	1.150949	89.940166	22.636772	0.003045	-62.094586	-62.094586	-62.094586	0.103354	6.639763	2.830000	0.090065	0.125018	75.252141
917.768017	1.122795	0.224875	1.145093	89.687988	23.023491	0.002920	-62.575920	-62.575920	-62.575920	0.101833	6.504042	2.830000	0.086758	0.122918	75.557593
930.988035	1.118849	0.212172	1.138789	89.432417	23.415988	0.002800	-63.056875	-63.056875	-63.056875	0.100279	6.365933	2.830000	0.083575	0.120858	75.856532
944.398480	1.114260	0.199921	1.132053	89.173432	23.814364	0.002685	-63.537155	-63.537155	-63.537155	0.098683	6.225658	2.830000	0.080510	0.118836	76.149054
958.002097	1.109055	0.188172	1.124905	88.911028	24.218721	0.002574	-64.016413	-64.016413	-64.016413	0.097035	6.083464	2.830000	0.077562	0.116852	76.435248
971.801667	1.103264	0.176971	1.117368	88.645220	24.629157	0.002468	-64.494249	-64.494249	-64.494249	0.095330	5.939622	2.830000	0.074724	0.114904	76.715193
985.800014	1.096923	0.166366	1.109467	88.376048	25.045771	0.002365	-64.970215	-64.970215	-64.970215	0.093561	5.794426	2.830000	0.071993	0.112993	76.988962
1000.000000	1.090071	0.156401	1.101234	88.103572	25.468659	0.002267	-65.443817	-65.443817	-65.443817	0.091722	5.648191	2.830000	0.069365	0.111117	77.256622
1014.404530	1.082754	0.147119	1.092703	87.827883	25.897914	0.002172	-65.914520	-65.914520	-65.914520	0.089811	5.501255	2.830000	0.066838	0.109275	77.518235
1029.016551	1.075019	0.138560	1.083912	87.549098	26.333626	0.002081	-66.381749	-66.381749	-66.381749	0.087824	5.353973	2.830000	0.064406	0.107467	77.773861
1043.839051	1.066922	0.130759	1.074905	87.267364	26.775884	0.001993	-66.844899	-66.844899	-66.844899	0.085759	5.206714	2.830000	0.062068	0.105692	78.023557
1058.875063	1.058520	0.123750	1.065729	86.982859	27.224772	0.001909	-67.303336	-67.303336	-67.303336	0.083618	5.059861	2.830000	0.059819	0.103949	78.267378
1074.127661	1.049874	0.117561	1.056436	86.695795	27.680370	0.001828	-67.756406	-67.756406	-67.756406	0.081400	4.913807	2.830000	0.057657	0.102239	78.505380
1089.599965	1.041052	0.112215	1.047082	86.406417	28.142757	0.001751	-68.203438	-68.203438	-68.203438	0.079107	4.768949	2.830000	0.055579	0.100559	78.737621
1105.295141	1.032122	0.107729	1.037729	86.115002	28.612005	0.001676	-68.643758	-68.643758	-68.643758	0.076745	4.625684	2.830000	0.053582	0.098910	78.964162
1121.216399	1.023157	0.104115	1.028441	85.821863	29.088185	0.001605	-69.076689	-69.076689	-69.076689	0.074317	4.484407	2.830000	0.051663	0.097290	79.185064
1137.366994	1.014232	0.101379	1.019287	85.527344	29.571364	0.001536	-69.501563	-69.501563	-69.501563	0.071830	4.345506	2.830000	0.049818	0.095701	79.400396
1153.750232	1.005425	0.099520	1.010338	85.231822	30.061605	0.001470	-69.917727	-69.917727	-69.917727	0.069290	4.209353	2.830000	0.048046	0.094140	79.610230
1170.369462	0.996813	0.098526	1.001671	84.935702	30.558968	0.001406	-70.324554	-70.324554	-70.324554	0.066706	4.076304	2.830000	0.046344	0.092608	79.814643
1187.228084	0.988477	0.098383	0.993361	84.639415	31.063510	0.001345	-70.721448	-70.721448	-70.721448	0.064087	3.946694	2.830000	0.044710	0.091104	80.013719
1204.329547	0.980495	0.099064	0.985487	84.343413	31.575288	0.001287	-71.107854	-71.107854	-71.107854	0.061443	3.820830	2.830000	0.043140	0.089627	80.207549
1221.677349	0.972945	0.100537	0.978126	84.048165	32.094354	0.001231	-71.483263	-71.483263	-71.483263	0.058785	3.698989	2.830000	0.041632	0.088178	80.396229
1239.275037	0.965905	0.102758	0.971355	83.754151	32.620759	0.001178	-71.847223	-71.847223	-71.847223	0.056124	3.581413	2.830000	0.040184	0.086755	80.579863
1257.126212	0.959446	0.105678	0.965248	83.461851	33.154556	0.001126	-72.199345	-72.199345	-72.199345	0.053471	3.468307	2.830000	0.038794	0.085358	80.758560
1275.234525	0.953639	0.109236	0.959874	83.171745	33.695795	0.001077	-72.539307	-72.539307	-72.539307	0.050839	3.359837	2.830000	0.037459	0.083987	80.932436
1293.603680	0.948547	0.113365	0.955297	82.884296	34.244527	0.001030	-72.866862	-72.866862	-72.866862	0.048239	3.256124	2.830000	0.036176	0.082641	81.101614
1312.237433	0.944229	0.117989	0.951572	82.599945	34.800804	0.000985	-73.181843	-73.181843	-73.181843	0.045685	3.157250	2.830000	0.034945	0.081320	81.266221
1331.139597	0.940736	0.123024	0.948746	82.319102	35.364679	0.000942	-73.484167	-73.484167	-73.484167	0.043188	3.063248	2.830000	0.033762	0.080023	81.426389
1350.314038	0.938110	0.128379	0.946853	82.042132	35.936209	0.000900	-73.773836	-73.773836	-73.773836	0.040759	2.974111	2.830000	0.032625	0.078751	81.582254
1369.764677	0.936383	0.133958	0.945917	81.769351	36.515450	0.000861	-74.050943	-74.050943	-74.050943	0.038410	2.889787	2.830000	0.031533	0.077501	81.733957
1389.495494	0.935579	0.139657	0.945945	81.501015	37.102467	0.000823	-74.315674	-74.315674	-74.315674	0.036151	2.810181	2.830000	0.030483	0.076275	81.881640
1409.510524	0.935707	0.145369	0.946932	81.237311	37.697323	0.000787	-74.568302	-74.568302	-74.568302	0.033993	2.735159	2.830000	0.029474	0.075072	82.025449
1429.813862	0.936766	0.150986	0.948856	80.978353	38.300088	0.000753	-74.809193	-74.809193	-74.809193	0.031945	2.664549	2.830000	0.028504	0.073890	82.165529
1450.409659	0.938741	0.156396	0.951679	80.724174	38.910838	0.000720	-75.038802	-75.038802	-75.038802	0.030015	2.598143	2.830000	0.027571	0.072730	82.302026
1471.302129	0.941602	0.161487	0.955349	80.474726	39.529652	0.000689	-75.257668	-75.257668	-75.257668	0.028210	2.535702	2.830000	0.026673	0.071592	82.435086
1492.495545	0.945307	0.166151	0.959798	80.229878	40.156616	0.000659	-75.466412	-75.466412	-75.466412	0.026536	2.476961	2.830000	0.025809	0.070474	82.564855
1513.994242	0.949798	0.170283	0.964942	79.989414	40.791820	0.000630	-75.665730	-75.665730	-75.665730	0.024998	2.421627	2.830000	0.024976	0.069377	82.691474
1535.802619	0.955004	0.173782	0.970687	79.753041	41.435362	0.000603	-75.856390	-75.856390	-75.856390	0.023599	2.369390	2.830000	0.024175	0.068299	82.815084
1557.925134	0.960839	0.176557	0.976926	79.520389	42.087346	0.000577	-76.039219	-76.039219	-76.039219	0.022341	2.319924	2.830000	0.023402	0.067241	82.935821
1580.366314	0.967204	0.178527	0.983542	79.291018	42.747883	0.000552	-76.215094	-76.215094	-76.215094	0.021225	2.272892	2.830000	0.022658	0.066202	83.053817
1603.130749	0.973988	0.179622	0.990412	79.064429	43.417089	0.000528	-76.384938	-76.384938	-76.384938	0.020250	2.227951	2.830000	0.021940	0.065182	83.169202
1626.223094	0.981069	0.179787	0.997406	78.840069	44.095087	0.000506	-76.549700	-76.549700	-76.549700	0.019413	2.184757	2.830000	0.021247	0.064179	83.282098
1649.648074	0.988315	0.178983	1.004391	78.617342	44.782010	0.000484	-76.710348	-76.710348	-76.710348	0.018710	2.142968	2.830000	0.020578	0.063195	83.392621
1673.410480	0.995589	0.177188	1.011234	78.395622	45.477994	0.000464	-76.867852	-76.867852	-76.867852	0.018136	2.102253	2.830000	0.019933	0.062228	83.500884
1697.515172	1.002748	0.174401	1.017801	78.174262	46.183184	0.000444	-77.023169	-77.023169	-77.023169	0.017682	2.062293	2.830000	0.019309	0.061278	83.606990
1721.967081	1.009646	0.170641	1.023965	77.952605	46.897729	0.000425	-77.177229	-77.177229	-77.177229	0.017340	2.022786	2.830000	0.018707	0.060344	83.711038
1746.771208	1.016140	0.165947	1.029601	77.729999	47.621788	0.000407	-77.330918	-77.330918	-77.330918	0.017099	1.983454	2.830000	0.018125	0.059427	83.813118
1771.932627	1.022090	0.160383	1.034597	77.505803	48.355523	0.000390	-77.485058	-77.485058	-77.485058	0.016949	1.944047	2.830000	0.017562	0.058525	83.913313
1797.456484	1.027364	0.154032	1.038847	77.279406	49.099103	0.000374	-77.640395	-77.640395	-77.640395	0.016874	1.904345	2.830000	0.017017	0.057639	84.011698
1823.348001	1.031843	0.146998	1.042262	77.050236	49.852703	0.000358	-77.797578	-77.797578	-77.797578	0.016862	1.864166	2.830000	0.016490	0.056767	84.108343
1849.612473	1.035422	0.139407	1.044764	76.817771	50.616501	0.000343	-77.957146	-77.957146	-77.957146	0.016897	1.823367	2.830000	0.015981	0.055911	84.203305
1876.255272	1.038013	0.131401	1.046297	76.581554	51.390681	0.000329	-78.119512	-78.119512	-78.119512	0.016963	1.781847	2.830000	0.015487	0.055068	84.296639
1903.281848	1.039554	0.123138	1.046821	76.341202	52.175429	0.000315	-78.284950	-78.284950	-78.284950	0.017045	1.739552	2.830000	0.015010	0.054240	84.388389
1930.697729	1.040003	0.114788	1.046319	76.096423	52.970935	0.000302	-78.453586	-78.453586	-78.453586	0.017126	1.696472	2.830000	0.014548	0.053426	84.478592
1958.508523	1.039351	0.106528	1.044796	75.847026	53.777392	0.000289	-78.625392	-78.625392	-78.625392	0.017190	1.652647	2.830000	0.014100	0.052624	84.567280
1986.719919	1.037613	0.098540	1.042282	75.592929	54.594991	0.000277	-78.800180	-78.800180	-78.800180	0.017223	1.608162	2.830000	0.013667	0.051836	84.654475
2015.337686	1.034841	0.091002	1.038835	75.334176	55.423926	0.000265	-78.977604	-78.977604	-78.977604	0.017211	1.563147	2.830000	0.013247	0.051061	84.740198
2044.367679	1.031113	0.084089	1.034536	75.070940	56.264389	0.000254	-79.157167	-79.157167	-79.157167	0.017142	1.517774	2.830000	0.012840	0.050298	84.824462
2073.815835	1.026541	0.077959	1.029497	74.803535	57.116574	0.000244	-79.338233	-79.338233	-79.338233	0.017005	1.472250	2.830000	0.012447	0.049548	84.907275
2103.688178	1.021265	0.072754	1.023854	74.532411	57.980668	0.000233	-79.520040	-79.520040	-79.520040	0.016794	1.426813	2.830000	0.012066	0.048809	84.988645
2133.990819	1.015452	0.068591	1.017765	74.258162	58.856860	0.000224	-79.701723	-79.701723	-79.701723	0.016502	1.381724	2.830000	0.011697	0.048083	85.068575
2164.729954	1.009289	0.065557	1.011416	73.981513	59.745334	0.000214	-79.882343	-79.882343	-79.882343	0.016129	1.337257	2.830000	0.011340	0.047368	85.147070
2195.911873	1.002983	0.063705	1.005004	73.703305	60.646270	0.000205	-80.060915	-80.060915	-80.060915	0.015674	1.293687	2.830000	0.010995	0.046664	85.224131
2227.542952	0.996751	0.063050	0.998743	73.424481	61.559847	0.000196	-80.236440	-80.236440	-80.236440	0.015143	1.251288	2.830000	0.010661	0.045972	85.299764
2259.629662	0.990813	0.063566	0.992850	73.146051	62.486238	0.000188	-80.407949	-80.407949	-80.407949	0.014543	1.210313	2.830000	0.010337	0.045290	85.373974
2292.178566	0.985387	0.065182	0.987540	72.869059	63.425617	0.000180	-80.574532	-80.574532	-80.574532	0.013883	1.170988	2.830000	0.010024	0.044619	85.446772
2325.196322	0.980674	0.067787	0.983014	72.594537	64.378152	0.000172	-80.735382	-80.735382	-80.735382	0.013177	1.133506	2.830000	0.009721	0.043959	85.518169
2358.689683	0.976859	0.071229	0.979452	72.323456	65.344014	0.000165	-80.889825	-80.889825	-80.889825	0.012439	1.098013	2.830000	0.009428	0.043309	85.588184
2392.665500	0.974091	0.075317	0.976998	72.056676	66.323369	0.000158	-81.037354	-81.037354	-81.037354	0.011685	1.064604	2.830000	0.009145	0.042670	85.656837
2427.130723	0.972484	0.079832	0.975755	71.794895	67.316387	0.000151	-81.177654	-81.177654	-81.177654	0.010934	1.033322	2.830000	0.008871	0.042040	85.724154
2462.092401	0.972106	0.084528	0.975774	71.538601	68.323240	0.000145	-81.310621	-81.310621	-81.310621	0.010202	1.004150	2.830000	0.008605	0.041421	85.790167
2497.557686	0.972972	0.089147	0.977047	71.288034	69.344103	0.000139	-81.436372	-81.436372	-81.436372	0.009506	0.977017	2.830000	0.008348	0.040811	85.854909
2533.533832	0.975043	0.093428	0.979509	71.043164	70.379154	0.000133	-81.555248	-81.555248	-81.555248	0.008863	0.951795	2.830000	0.008100	0.040211	85.918419
2570.028197	0.978224	0.097116	0.983033	70.803677	71.428580	0.000127	-81.667806	-81.667806	-81.667806	0.008285	0.928312	2.830000	0.007859	0.039620	85.980739
2607.048246	0.982364	0.099982	0.987439	70.568982	72.492571	0.000122	-81.774799	-81.774799	-81.774799	0.007786	0.906349	2.830000	0.007626	0.039038	86.041910
2644.601552	0.987260	0.101826	0.992497	70.338239	73.571329	0.000116	-81.877146	-81.877146	-81.877146	0.007371	0.885661	2.830000	0.007400	0.038466	86.101978
2682.695795	0.992666	0.102499	0.997944	70.110390	74.665061	0.000112	-81.975899	-81.975899	-81.975899	0.007047	0.865976	2.830000	0.007182	0.037903	86.160988
2721.338768	0.998304	0.101907	1.003492	69.884218	75.773986	0.000107	-82.072191	-82.072191	-82.072191	0.006812	0.847018	2.830000	0.006970	0.037348	86.218982
2760.538375	1.003873	0.100021	1.008843	69.658406	76.898329	0.000102	-82.167184	-82.167184	-82.167184	0.006665	0.828511	2.830000	0.006765	0.036802	86.276003
2800.302634	1.009068	0.096883	1.013708	69.431603	78.038328	0.000098	-82.262014	-82.262014	-82.262014	0.006596	0.810197	2.830000	0.006565	0.036264	86.332090
2840.639679	1.013597	0.092610	1.017819	69.202502	79.194227	0.000094	-82.357725	-82.357725	-82.357725	0.006596	0.791847	2.830000	0.006372	0.035735	86.387280
2881.557759	1.017197	0.087386	1.020944	68.969903	80.366280	0.000090	-82.455215	-82.455215	-82.455215	0.006648	0.773273	2.830000	0.006185	0.035214	86.441602
2923.065245	1.019655	0.081459	1.022904	68.732790	81.554747	0.000086	-82.555177	-82.555177	-82.555177	0.006736	0.754337	2.830000	0.006004	0.034701	86.495084
2965.170628	1.020819	0.075130	1.023580	68.490391	82.759894	0.000083	-82.658059	-82.658059	-82.658059	0.006840	0.734960	2.830000	0.005827	0.034195	86.547748
3007.882518	1.020617	0.068732	1.022929	68.242235	83.981994	0.000079	-82.764024	-82.764024	-82.764024	0.006941	0.715122	2.830000	0.005656	0.033698	86.599609
3051.209653	1.019062	0.062616	1.020984	67.988197	85.221320	0.000076	-82.872936	-82.872936	-82.872936	0.007019	0.694869	2.830000	0.005490	0.033208	86.650680
3095.160895	1.016260	0.057123	1.017864	67.728528	86.478147	0.000073	-82.984361	-82.984361	-82.984361	0.007057	0.674306	2.830000	0.005330	0.032725	86.700968
3139.745234	1.012404	0.052563	1.013767	67.463870	87.752753	0.000070	-83.097588	-83.097588	-83.097588	0.007042	0.653590	2.830000	0.005173	0.032250	86.750477
3184.971790	1.007767	0.049189	1.008967	67.195238	89.045411	0.000067	-83.211674	-83.211674	-83.211674	0.006961	0.632919	2.830000	0.005022	0.031782	86.799208
3230.849813	1.002690	0.047177	1.003799	66.923983	90.356394	0.000064	-83.325503	-83.325503	-83.325503	0.006811	0.612518	2.830000	0.004875	0.031320	86.847159
3277.388687	0.997553	0.046606	0.998641	66.651716	91.685971	0.000061	-83.437871	-83.437871	-83.437871	0.006592	0.592620	2.830000	0.004732	0.030866	86.894332
3324.597932	0.992754	0.047446	0.993888	66.380198	93.034408	0.000059	-83.547573	-83.547573	-83.547573	0.006309	0.573450	2.830000	0.004594	0.030419	86.940725
3372.487204	0.988675	0.049556	0.989916	66.111210	94.401968	0.000056	-83.653503	-83.653503	-83.653503	0.005973	0.555203	2.830000	0.004460	0.029978	86.986340
3421.066299	0.985649	0.052687	0.987057	65.846385	95.788914	0.000054	-83.754747	-83.754747	-83.754747	0.005601	0.538033	2.830000	0.004330	0.029544	87.031184
3470.345152	0.983931	0.056501	0.985552	65.587052	97.195506	0.000051	-83.850663	-83.850663	-83.850663	0.005212	0.522032	2.830000	0.004204	0.029117	87.075264
3520.333844	0.983668	0.060588	0.985533	65.334081	98.622010	0.000049	-83.940949	-83.940949	-83.940949	0.004826	0.507230	2.830000	0.004082	0.028695	87.118593
3571.042600	0.984884	0.064507	0.986994	65.087770	100.068691	0.000047	-84.025677	-84.025677	-84.025677	0.004464	0.493583	2.830000	0.003964	0.028281	87.161188
3622.481792	0.987465	0.067817	0.989791	64.847784	101.535824	0.000045	-84.105297	-84.105297	-84.105297	0.004145	0.480986	2.830000	0.003849	0.027872	87.203067
3674.661941	0.991167	0.070128	0.993645	64.613158	103.023690	0.000043	-84.180611	-84.180611	-84.180611	0.003885	0.469273	2.830000	0.003738	0.027469	87.244254
3727.593720	0.995629	0.071133	0.998167	64.382379	104.532579	0.000041	-84.252704	-84.252704	-84.252704	0.003694	0.458237	2.830000	0.003629	0.027073	87.284772
3781.287957	1.000404	0.070651	1.002896	64.153520	106.062793	0.000040	-84.322848	-84.322848	-84.322848	0.003576	0.447647	2.830000	0.003525	0.026682	87.324647
3835.755635	1.005000	0.068648	1.007342	63.924435	107.614646	0.000038	-84.392385	-84.392385	-84.392385	0.003528	0.437271	2.830000	0.003423	0.026298	87.363902
3891.007893	1.008930	0.065255	1.011038	63.692972	109.188463	0.000036	-84.462589	-84.462589	-84.462589	0.003540	0.426895	2.830000	0.003324	0.025918	87.402559
3947.056035	1.011767	0.060755	1.013589	63.457204	110.784579	0.000035	-84.534535	-84.534535	-84.534535	0.003597	0.416348	2.830000	0.003228	0.025545	87.440638
4003.911523	1.013192	0.055567	1.014715	63.215637	112.403339	0.000033	-84.608974	-84.608974	-84.608974	0.003679	0.405517	2.830000	0.003135	0.025177	87.478154
4061.585988	1.013044	0.050203	1.014287	62.967397	114.045095	0.000032	-84.686242	-84.686242	-84.686242	0.003762	0.394358	2.830000	0.003045	0.024815	87.515120
4120.091227	1.011340	0.045209	1.012350	62.712355	115.710205	0.000031	-84.766211	-84.766211	-84.766211	0.003826	0.382905	2.830000	0.002957	0.024458	87.551542
4179.439206	1.008290	0.041105	1.009128	62.451191	117.399028	0.000029	-84.848293	-84.848293	-84.848293	0.003850	0.371257	2.830000	0.002872	0.024106	87.587424
4239.642065	1.004280	0.038314	1.005011	62.185369	119.111924	0.000028	-84.931501	-84.931501	-84.931501	0.003819	0.359575	2.830000	0.002789	0.023759	87.622769
4300.712118	0.999828	0.037103	1.000516	61.917014	120.849249	0.000027	-85.014565	-85.014565	-85.014565	0.003727	0.348053	2.830000	0.002709	0.023418	87.657575
4362.661857	0.995527	0.037535	0.996235	61.648677	122.611361	0.000026	-85.096096	-85.096096	-85.096096	0.003575	0.336895	2.830000	0.002631	0.023081	87.691842
4425.503952	0.991967	0.039454	0.992751	61.383013	124.398610	0.000025	-85.174768	-85.174768	-85.174768	0.003373	0.326289	2.830000	0.002555	0.022749	87.725570
4489.251258	0.989647	0.042492	0.990559	61.122394	126.211349	0.000024	-85.249511	-85.249511	-85.249511	0.003137	0.316377	2.830000	0.002482	0.022423	87.758761
4553.916814	0.988903	0.046107	0.989977	60.868519	128.049930	0.000023	-85.319669	-85.319669	-85.319669	0.002891	0.307235	2.830000	0.002410	0.022101	87.791422
4619.513847	0.989844	0.049660	0.991089	60.622101	129.914707	0.000022	-85.385112	-85.385112	-85.385112	0.002656	0.298862	2.830000	0.002341	0.021784	87.823561
4686.055775	0.992324	0.052504	0.993712	60.382689	131.806042	0.000021	-85.446267	-85.446267	-85.446267	0.002457	0.291180	2.830000	0.002274	0.021471	87.855191
4753.556208	0.995949	0.054089	0.997417	60.148691	133.724306	0.000020	-85.504073	-85.504073	-85.504073	0.002311	0.284043	2.830000	0.002209	0.021163	87.886326
4822.028953	1.000130	0.054055	1.001590	59.917594	135.669884	0.000019	-85.559846	-85.559846	-85.559846	0.002225	0.277262	2.830000	0.002146	0.020859	87.916983
4891.488015	1.004168	0.052302	1.005529	59.686364	137.643170	0.000018	-85.615073	-85.615073	-85.615073	0.002202	0.270631	2.830000	0.002084	0.020560	87.947179
4961.947603	1.007369	0.049028	1.008562	59.451946	139.644576	0.000018	-85.671174	-85.671174	-85.671174	0.002229	0.263962	2.830000	0.002025	0.020266	87.976927
5033.422128	1.009169	0.044703	1.010159	59.211789	141.674524	0.000017	-85.729253	-85.729253	-85.729253	0.002289	0.257117	2.830000	0.001967	0.019975	88.006243
5105.926210	1.009243	0.040005	1.010036	58.964314	143.733447	0.000016	-85.789897	-85.789897	-85.789897	0.002357	0.250026	2.830000	0.001910	0.019689	88.035134
5179.474679	1.007579	0.035701	1.008211	58.709243	145.821786	0.000015	-85.853057	-85.853057	-85.853057	0.002409	0.242706	2.830000	0.001856	0.019407	88.063608
5254.082580	1.004499	0.032505	1.005025	58.447727	147.939984	0.000015	-85.918038	-85.918038	-85.918038	0.002422	0.235249	2.830000	0.001803	0.019129	88.091666
5329.765172	1.000615	0.030933	1.001093	58.182225	150.088486	0.000014	-85.983624	-85.983624	-85.983624	0.002383	0.227811	2.830000	0.001751	0.018856	88.119310
5406.537936	0.996719	0.031185	0.997207	57.916099	152.267733	0.000014	-86.048308	-86.048308	-86.048308	0.002289	0.220574	2.830000	0.001701	0.018586	88.146540
5484.416576	0.993627	0.033087	0.994177	57.652976	154.478167	0.000013	-86.110597	-86.110597	-86.110597	0.002148	0.213712	2.830000	0.001653	0.018320	88.173355
5563.417021	0.992002	0.036108	0.992659	57.395958	156.720226	0.000012	-86.169334	-86.169334	-86.169334	0.001980	0.207351	2.830000	0.001605	0.018058	88.199757
5643.555431	0.992202	0.039455	0.992986	57.146863	158.994352	0.000012	-86.223961	-86.223961	-86.223961	0.001809	0.201543	2.830000	0.001560	0.017799	88.225752
5724.848197	0.994179	0.042241	0.995076	56.905713	161.300991	0.000011	-86.274661	-86.274661	-86.274661	0.001662	0.196253	2.830000	0.001515	0.017545	88.251347
5807.311946	0.997466	0.043691	0.998423	56.670632	163.640601	0.000011	-86.322338	-86.322338	-86.322338	0.001559	0.191366	2.830000	0.001472	0.017294	88.276552
5890.963548	1.001270	0.043330	1.002207	56.438233	166.013651	0.000010	-86.368422	-86.368422	-86.368422	0.001511	0.186715	2.830000	0.001430	0.017047	88.301380
5975.820111	1.004645	0.041123	1.005487	56.204411	168.420628	0.000010	-86.414541	-86.414541	-86.414541	0.001516	0.182115	2.830000	0.001389	0.016803	88.325843
6061.898993	1.006734	0.037506	1.007432	55.965357	170.862032	0.000010	-86.462118	-86.462118	-86.462118	0.001559	0.177414	2.830000	0.001350	0.016563	88.349951
6149.217802	1.006991	0.033297	1.007541	55.718543	173.338378	0.000009	-86.512006	-86.512006	-86.512006	0.001615	0.172526	2.830000	0.001311	0.016326	88.373713
6237.794396	1.005350	0.029498	1.005783	55.463441	175.850190	0.000009	-86.564245	-86.564245	-86.564245	0.001657	0.167452	2.830000	0.001274	0.016093	88.397134
6327.646895	1.002271	0.027026	1.002635	55.201780	178.397997	0.000008	-86.618037	-86.618037	-86.618037	0.001661	0.162282	2.830000	0.001238	0.015863	88.420216
6418.793677	0.998633	0.026446	0.998983	54.937209	180.982327	0.000008	-86.671949	-86.671949	-86.671949	0.001616	0.157165	2.830000	0.001202	0.015637	88.442960
6511.253386	0.995505	0.027783	0.995893	54.674364	183.603708	0.000008	-86.724314	-86.724314	-86.724314	0.001524	0.152268	2.830000	0.001168	0.015414	88.465367
6605.044933	0.993829	0.030490	0.994296	54.417522	186.262668	0.000007	-86.773722	-86.773722	-86.773722	0.001400	0.147727	2.830000	0.001135	0.015194	88.487436
6700.187504	0.994120	0.033580	0.994687	54.169203	188.959734	0.000007	-86.819464	-86.819464	-86.819464	0.001273	0.143600	2.830000	0.001103	0.014977	88.509171
6796.700558	0.996281	0.035924	0.996928	53.929231	191.695443	0.000007	-86.861770	-86.861770	-86.861770	0.001169	0.139856	2.830000	0.001071	0.014763	88.530579
6894.603838	0.999599	0.036607	1.000269	53.694656	194.470340	0.000007	-86.901763	-86.901763	-86.901763	0.001109	0.136377	2.830000	0.001041	0.014552	88.551669
6993.917368	1.002954	0.035255	1.003573	53.460647	197.284990	0.000006	-86.941112	-86.941112	-86.941112	0.001100	0.133001	2.830000	0.001011	0.014345	88.572449
7094.661463	1.005182	0.032190	1.005698	53.222104	200.139973	0.000006	-86.981480	-86.981480	-86.981480	0.001131	0.129573	2.830000	0.000983	0.014140	88.592928
7196.856730	1.005494	0.028355	1.005894	52.975436	203.035886	0.000006	-87.023944	-87.023944	-87.023944	0.001178	0.125998	2.830000	0.000955	0.013938	88.613115
7300.524071	1.003780	0.025003	1.004091	52.719912	205.973337	0.000006	-87.068595	-87.068595	-87.068595	0.001211	0.122271	2.830000	0.000928	0.013740	88.633014
7405.684692	1.000691	0.023235	1.000961	52.458090	208.952940	0.000005	-87.114486	-87.114486	-87.114486	0.001206	0.118482	2.830000	0.000901	0.013544	88.652626
7512.360102	0.997428	0.023573	0.997706	52.195041	211.975309	0.000005	-87.159969	-87.159969	-87.159969	0.001155	0.114778	2.830000	0.000876	0.013351	88.671952
7620.572122	0.995288	0.025715	0.995620	51.936502	215.041059	0.000005	-87.203326	-87.203326	-87.203326	0.001067	0.111304	2.830000	0.000851	0.013160	88.690992
7730.342884	0.995144	0.028614	0.995556	51.686526	218.150804	0.000005	-87.243468	-87.243468	-87.243468	0.000966	0.108147	2.830000	0.000827	0.012973	88.709748
7841.694843	0.997051	0.030883	0.997529	51.445625	221.305164	0.000004	-87.280399	-87.280399	-87.280399	0.000882	0.105299	2.830000	0.000803	0.012788	88.728226
7954.650775	1.000176	0.031377	1.000668	51.210362	224.504775	0.000004	-87.315246	-87.315246	-87.315246	0.000840	0.102658	2.830000	0.000780	0.012606	88.746431
8069.233784	1.003128	0.029710	1.003568	50.974723	227.750286	0.000004	-87.349797	-87.349797	-87.349797	0.000843	0.100074	2.830000	0.000758	0.012426	88.764372
8185.467307	1.004559	0.026480	1.004908	50.732773	231.042368	0.000004	-87.385712	-87.385712	-87.385712	0.000877	0.097413	2.830000	0.000737	0.012249	88.782055
8303.375120	1.003803	0.023033	1.004067	50.481404	234.381708	0.000004	-87.423761	-87.423761	-87.423761	0.000914	0.094618	2.830000	0.000716	0.012074	88.799487
8422.981339	1.001232	0.020856	1.001450	50.221940	237.769002	0.000004	-87.463441	-87.463441	-87.463441	0.000923	0.091731	2.830000	0.000696	0.011902	88.816670
8544.310429	0.998129	0.020844	0.998347	49.959745	241.204951	0.000003	-87.503192	-87.503192	-87.503192	0.000890	0.088877	2.830000	0.000676	0.011733	88.833604
8667.387209	0.996076	0.022812	0.996337	49.701749	244.690256	0.000003	-87.541167	-87.541167	-87.541167	0.000820	0.086194	2.830000	0.000657	0.011566	88.850290
8792.236851	0.996144	0.025539	0.996471	49.452870	248.225619	0.000003	-87.576175	-87.576175	-87.576175	0.000739	0.083767	2.830000	0.000638	0.011401	88.866730
8918.884894	0.998288	0.027367	0.998663	49.213197	251.811748	0.000003	-87.608337	-87.608337	-87.608337	0.000678	0.081580	2.830000	0.000620	0.011239	88.882928
9047.357242	1.001313	0.027100	1.001680	48.977693	255.449368	0.000003	-87.639047	-87.639047	-87.639047	0.000658	0.079527	2.830000	0.000602	0.011079	88.898890
9177.680175	1.003497	0.024708	1.003801	48.738870	259.139222	0.000003	-87.670230	-87.670230	-87.670230	0.000677	0.077466	2.830000	0.000585	0.010921	88.914622
9309.880348	1.003569	0.021404	1.003797	48.491047	262.882076	0.000003	-87.703243	-87.703243	-87.703243	0.000710	0.075302	2.830000	0.000569	0.010765	88.930130
9443.984802	1.001495	0.018976	1.001675	48.233789	266.678709	0.000003	-87.738073	-87.738073	-87.738073	0.000727	0.073039	2.830000	0.000553	0.010612	88.945417
9580.020968	0.998564	0.018718	0.998740	47.972442	270.529906	0.000002	-87.773315	-87.773315	-87.773315	0.000705	0.070778	2.830000	0.000537	0.010461	88.960485
9718.016671	0.996636	0.020581	0.996848	47.715098	274.436453	0.000002	-87.807027	-87.807027	-87.807027	0.000648	0.068649	2.830000	0.000522	0.010312	88.975333
9858.000137	0.996958	0.023139	0.997227	47.467458	278.399141	0.000002	-87.837964	-87.837964	-87.837964	0.000581	0.066733	2.830000	0.000507	0.010165	88.989964
10000.000000	0.999305	0.024473	0.999605	47.228819	282.418765	0.000002	-87.866419	-87.866419	-87.866419	0.000538	0.065005	2.830000	0.000493	0.010021	89.004381
10144.045304	1.002054	0.023465	1.002329	46.992262	286.496143	0.000002	-87.894057	-87.894057	-87.894057	0.000535	0.063352	2.830000	0.000479	0.009878	89.018590
10290.165513	1.003267	0.020627	1.003479	46.749299	290.632111	0.000002	-87.922795	-87.922795	-87.922795	0.000561	0.061650	2.830000	0.000465	0.009737	89.032596
10438.390514	1.002073	0.017810	1.002231	46.495914	294.827527	0.000002	-87.953440	-87.953440	-87.953440	0.000585	0.059849	2.830000	0.000452	0.009599	89.046402
10588.750628	0.999375	0.016890	0.999518	46.235716	299.083260	0.000002	-87.985082	-87.985082	-87.985082	0.000578	0.058010	2.830000	0.000439	0.009462	89.060012
10741.276608	0.997242	0.018339	0.997411	45.977613	303.400183	0.000002	-88.015755	-88.015755	-88.015755	0.000535	0.056255	2.830000	0.000427	0.009328	89.073424
10895.999653	0.997342	0.020784	0.997558	45.729093	307.779171	0.000002	-88.043933	-88.043933	-88.043933	0.000478	0.054673	2.830000	0.000415	0.009195	89.086641
11052.951411	0.999580	0.022025	0.999823	45.490048	312.221107	0.000002	-88.069760	-88.069760	-88.069760	0.000442	0.053251	2.830000	0.000403	0.009064	89.099666
11212.163986	1.002093	0.020816	1.002309	45.252509	316.726894	0.000002	-88.094963	-88.094963	-88.094963	0.000444	0.051884	2.830000	0.000392	0.008935	89.112504
11373.669943	1.002745	0.017971	1.002906	45.007118	321.297458	0.000001	-88.121445	-88.121445	-88.121445	0.000469	0.050460	2.830000	0.000381	0.008808	89.125158
11537.502317	1.000983	0.015745	1.001107	44.751178	325.933744	0.000001	-88.149654	-88.149654	-88.149654	0.000483	0.048957	2.830000	0.000370	0.008683	89.137633
11703.694619	0.998399	0.015889	0.998526	44.491344	330.636711	0.000001	-88.178175	-88.178175	-88.178175	0.000464	0.047456	2.830000	0.000359	0.008559	89.149929
11872.280844	0.997372	0.018014	0.997534	44.238014	335.407317	0.000001	-88.204978	-88.204978	-88.204978	0.000417	0.046070	2.830000	0.000349	0.008438	89.162047
12043.295474	0.998857	0.019860	0.999054	43.995657	340.246527	0.000001	-88.229302	-88.229302	-88.229302	0.000377	0.044837	2.830000	0.000339	0.008317	89.173990
12216.773490	1.001398	0.019401	1.001586	43.758169	345.155324	0.000001	-88.252403	-88.252403	-88.252403	0.000369	0.043686	2.830000	0.000330	0.008199	89.185760
12392.750375	1.002465	0.016863	1.002607	43.514531	350.134711	0.000001	-88.276362	-88.276362	-88.276362	0.000390	0.042504	2.830000	0.000320	0.008083	89.197362
12571.262124	1.000984	0.014598	1.001091	43.259814	355.185718	0.000001	-88.302018	-88.302018	-88.302018	0.000405	0.041248	2.830000	0.000311	0.007968	89.208799
12752.345251	0.998525	0.014717	0.998633	43.000548	360.309386	0.000001	-88.328086	-88.328086	-88.328086	0.000389	0.039988	2.830000	0.000303	0.007854	89.220073
12936.036796	0.997732	0.016815	0.997873	42.748285	365.506761	0.000001	-88.352495	-88.352495	-88.352495	0.000348	0.038829	2.830000	0.000294	0.007743	89.231184
13122.374331	0.999462	0.018307	0.999629	42.507073	370.778897	0.000001	-88.374622	-88.374622	-88.374622	0.000316	0.037800	2.830000	0.000286	0.007633	89.242135
13311.395971	1.001739	0.017256	1.001888	42.268518	376.126864	0.000001	-88.396014	-88.396014	-88.396014	0.000318	0.036820	2.830000	0.000278	0.007524	89.252928
13503.140379	1.001924	0.014637	1.002031	42.021059	381.551760	0.000001	-88.418653	-88.418653	-88.418653	0.000338	0.035792	2.830000	0.000270	0.007417	89.263568
13697.646775	0.999818	0.013307	0.999907	41.763519	387.054706	0.000001	-88.442653	-88.442653	-88.442653	0.000342	0.034712	2.830000	0.000262	0.007312	89.274057
13894.954944	0.998008	0.014599	0.998115	41.506959	392.636830	0.000001	-88.466104	-88.466104	-88.466104	0.000314	0.033672	2.830000	0.000255	0.007208	89.284395
14095.105244	0.998749	0.016601	0.998887	41.261417	398.299268	0.000001	-88.487406	-88.487406	-88.487406	0.000279	0.032746	2.830000	0.000248	0.007105	89.294584
14298.138616	1.001064	0.016466	1.001200	41.022943	404.043170	0.000001	-88.507292	-88.507292	-88.507292	0.000271	0.031898	2.830000	0.000241	0.007004	89.304626
14504.096588	1.001900	0.014118	1.002000	40.778273	409.869710	0.000001	-88.527914	-88.527914	-88.527914	0.000287	0.031027	2.830000	0.000234	0.006905	89.314525
14713.021288	1.000151	0.012456	1.000228	40.522318	415.780088	0.000001	-88.550009	-88.550009	-88.550009	0.000296	0.030101	2.830000	0.000227	0.006806	89.324284
14924.955451	0.998258	0.013477	0.998349	40.265451	421.775520	0.000001	-88.571893	-88.571893	-88.571893	0.000274	0.029197	2.830000	0.000221	0.006710	89.333903
15139.942425	0.998895	0.015417	0.999014	40.019495	427.857226	0.000001	-88.591788	-88.591788	-88.591788	0.000242	0.028392	2.830000	0.000215	0.006614	89.343384
15358.026185	1.001108	0.015167	1.001223	39.780598	434.026442	0.000001	-88.610365	-88.610365	-88.610365	0.000236	0.027653	2.830000	0.000208	0.006520	89.352729
15579.251340	1.001595	0.012834	1.001678	39.534411	440.284431	0.000001	-88.629785	-88.629785	-88.629785	0.000252	0.026888	2.830000	0.000203	0.006428	89.361940
15803.663140	0.999642	0.011691	0.999710	39.277516	446.632480	0.000001	-88.650482	-88.650482	-88.650482	0.000255	0.026081	2.830000	0.000197	0.006336	89.371021
16031.307485	0.998320	0.013199	0.998407	39.023102	453.071892	0.000001	-88.670496	-88.670496	-88.670496	0.000230	0.025312	2.830000	0.000191	0.006246	89.379972
16262.230941	0.999725	0.014615	0.999832	38.780557	459.603978	0.000000	-88.688539	-88.688539	-88.688539	0.000208	0.024632	2.830000	0.000186	0.006157	89.388794
16496.480741	1.001525	0.013326	1.001613	38.539966	466.230066	0.000000	-88.706080	-88.706080	-88.706080	0.000213	0.023982	2.830000	0.000181	0.006070	89.397490
16734.104799	1.000708	0.011219	1.000771	38.288097	472.951517	0.000000	-88.724940	-88.724940	-88.724940	0.000226	0.023288	2.830000	0.000176	0.005984	89.406062
16975.151720	0.998713	0.011597	0.998781	38.030884	479.769714	0.000000	-88.744233	-88.744233	-88.744233	0.000214	0.022587	2.830000	0.000171	0.005899	89.414512
17219.670809	0.999049	0.013443	0.999140	37.783667	486.686048	0.000000	-88.761896	-88.761896	-88.761896	0.000188	0.021957	2.830000	0.000166	0.005815	89.422841
17467.712080	1.001074	0.013111	1.001159	37.543974	493.701926	0.000000	-88.778333	-88.778333	-88.778333	0.000185	0.021382	2.830000	0.000161	0.005732	89.431051
17719.326270	1.001049	0.010929	1.001109	37.295546	500.818784	0.000000	-88.795692	-88.795692	-88.795692	0.000198	0.020779	2.830000	0.000157	0.005651	89.439144
17974.564843	0.999060	0.010697	0.999117	37.038419	508.038086	0.000000	-88.813907	-88.813907	-88.813907	0.000193	0.020154	2.830000	0.000152	0.005570	89.447122
18233.480009	0.998955	0.012497	0.999033	36.789304	515.361308	0.000000	-88.830829	-88.830829	-88.830829	0.000170	0.019583	2.830000	0.000148	0.005491	89.454986
18496.124725	1.000902	0.012436	1.000979	36.549261	522.789941	0.000000	-88.846392	-88.846392	-88.846392	0.000164	0.019069	2.830000	0.000144	0.005413	89.462737
18762.552716	1.000960	0.010345	1.001013	36.301179	530.325504	0.000000	-88.862741	-88.862741	-88.862741	0.000177	0.018533	2.830000	0.000140	0.005336	89.470378
19032.818477	0.999050	0.010216	0.999102	36.044393	537.969546	0.000000	-88.879899	-88.879899	-88.879899	0.000171	0.017976	2.830000	0.000136	0.005261	89.477910
19306.977289	0.999211	0.011941	0.999283	35.796459	545.723629	0.000000	-88.895740	-88.895740	-88.895740	0.000150	0.017472	2.830000	0.000132	0.005186	89.485334
19585.085230	1.001052	0.011454	1.001117	35.555990	553.589333	0.000000	-88.910490	-88.910490	-88.910490	0.000149	0.017011	2.830000	0.000128	0.005112	89.492652
19867.199185	1.000513	0.009530	1.000558	35.305301	561.568269	0.000000	-88.926231	-88.926231	-88.926231	0.000159	0.016523	2.830000	0.000124	0.005039	89.499867
20000.000000	0.999569	0.009438	0.999613	35.185452	565.324209	0.000000	-88.933835	-88.933835	-88.933835	0.000158	0.016289	2.830000	0.000123	0.005006	89.503192
