Freq (hertz)	Ra (norm)	Xa (norm)	Za (norm)	SPL (dB)	Ze (ohms)	Xd (mm) 	WPhase (deg)	UPhase (deg)	CPhase (deg)	Delay (msec)	Efficiency (%)	Ein (volts)	Pin (watts)	Iin (amps)	ZePhase (deg)

10.000000	0.000106	0.012735	0.012735	-60.153473	0.010000	0.400216	179.155305	179.155305	179.155305	0.234637	0.000000	2.830000	800.858383	282.994414	0.359996
10.144045	0.000109	0.012918	0.012919	-59.656572	0.010000	0.400216	179.143138	179.143138	179.143138	0.234637	0.000000	2.830000	800.857466	282.994252	0.365182
10.290166	0.000112	0.013104	0.013105	-59.159626	0.010000	0.400215	179.130795	179.130795	179.130795	0.234637	0.000000	2.830000	800.856522	282.994085	0.370442
10.438391	0.000116	0.013293	0.013294	-58.662784	0.010000	0.400215	179.118275	179.118275	179.118275	0.234637	0.000000	2.830000	800.855550	282.993913	0.375778
10.588751	0.000119	0.013485	0.013485	-58.165860	0.010000	0.400215	179.105574	179.105574	179.105574	0.234637	0.000000	2.830000	800.854551	282.993737	0.381191
10.741277	0.000123	0.013679	0.013679	-57.669032	0.010000	0.400215	179.092690	179.092690	179.092690	0.234636	0.000000	2.830000	800.853522	282.993555	0.386682
10.896000	0.000126	0.013876	0.013876	-57.172156	0.010000	0.400215	179.079621	179.079621	179.079621	0.234636	0.000000	2.830000	800.852464	282.993368	0.392251
11.052951	0.000130	0.014076	0.014076	-56.675260	0.010000	0.400214	179.066363	179.066363	179.066363	0.234636	0.000000	2.830000	800.851375	282.993176	0.397901
11.212164	0.000133	0.014278	0.014279	-56.178404	0.010000	0.400214	179.052915	179.052915	179.052915	0.234636	0.000000	2.830000	800.850254	282.992978	0.403633
11.373670	0.000137	0.014484	0.014485	-55.681511	0.010000	0.400214	179.039272	179.039272	179.039272	0.234636	0.000000	2.830000	800.849101	282.992774	0.409447
11.537502	0.000141	0.014693	0.014693	-55.184594	0.010000	0.400214	179.025434	179.025434	179.025434	0.234636	0.000000	2.830000	800.847914	282.992564	0.415345
11.703695	0.000145	0.014904	0.014905	-54.687734	0.010000	0.400213	179.011396	179.011396	179.011396	0.234636	0.000000	2.830000	800.846693	282.992348	0.421327
11.872281	0.000150	0.015119	0.015120	-54.190880	0.010000	0.400213	178.997155	178.997155	178.997155	0.234636	0.000000	2.830000	800.845436	282.992126	0.427396
12.043295	0.000154	0.015337	0.015338	-53.693969	0.010000	0.400213	178.982710	178.982710	178.982710	0.234636	0.000000	2.830000	800.844143	282.991898	0.433552
12.216773	0.000158	0.015558	0.015558	-53.197101	0.010000	0.400213	178.968056	178.968056	178.968056	0.234636	0.000000	2.830000	800.842812	282.991663	0.439797
12.392750	0.000163	0.015782	0.015783	-52.700214	0.010000	0.400212	178.953192	178.953192	178.953192	0.234636	0.000000	2.830000	800.841443	282.991421	0.446132
12.571262	0.000168	0.016009	0.016010	-52.203376	0.010000	0.400212	178.938113	178.938113	178.938113	0.234636	0.000000	2.830000	800.840034	282.991172	0.452558
12.752345	0.000173	0.016240	0.016240	-51.706479	0.010000	0.400212	178.922817	178.922817	178.922817	0.234636	0.000000	2.830000	800.838585	282.990916	0.459077
12.936037	0.000178	0.016473	0.016474	-51.209604	0.010000	0.400211	178.907301	178.907301	178.907301	0.234636	0.000000	2.830000	800.837093	282.990652	0.465690
13.122374	0.000183	0.016711	0.016712	-50.712736	0.010000	0.400211	178.891561	178.891561	178.891561	0.234636	0.000000	2.830000	800.835558	282.990381	0.472397
13.311396	0.000188	0.016951	0.016952	-50.215854	0.010000	0.400211	178.875595	178.875595	178.875595	0.234636	0.000000	2.830000	800.833978	282.990102	0.479202
13.503140	0.000194	0.017195	0.017197	-49.718974	0.010000	0.400210	178.859398	178.859398	178.859398	0.234636	0.000000	2.830000	800.832353	282.989815	0.486104
13.697647	0.000199	0.017443	0.017444	-49.222109	0.010000	0.400210	178.842969	178.842969	178.842969	0.234636	0.000000	2.830000	800.830680	282.989519	0.493106
13.894955	0.000205	0.017694	0.017696	-48.725244	0.010000	0.400210	178.826302	178.826302	178.826302	0.234636	0.000000	2.830000	800.828959	282.989215	0.500209
14.095105	0.000211	0.017949	0.017950	-48.228407	0.010000	0.400209	178.809396	178.809396	178.809396	0.234635	0.000000	2.830000	800.827188	282.988902	0.507414
14.298139	0.000217	0.018208	0.018209	-47.731506	0.010000	0.400209	178.792246	178.792246	178.792246	0.234635	0.000000	2.830000	800.825365	282.988580	0.514723
14.504097	0.000223	0.018470	0.018471	-47.234647	0.010000	0.400209	178.774849	178.774849	178.774849	0.234635	0.000000	2.830000	800.823490	282.988249	0.522137
14.713021	0.000230	0.018736	0.018737	-46.737763	0.010000	0.400208	178.757201	178.757201	178.757201	0.234635	0.000000	2.830000	800.821560	282.987908	0.529657
14.924955	0.000237	0.019006	0.019007	-46.240900	0.010000	0.400208	178.739299	178.739299	178.739299	0.234635	0.000000	2.830000	800.819574	282.987557	0.537287
15.139942	0.000243	0.019279	0.019281	-45.744028	0.010000	0.400207	178.721140	178.721140	178.721140	0.234635	0.000000	2.830000	800.817531	282.987196	0.545026
15.358026	0.000250	0.019557	0.019559	-45.247169	0.010000	0.400207	178.702718	178.702718	178.702718	0.234635	0.000000	2.830000	800.815428	282.986824	0.552876
15.579251	0.000258	0.019839	0.019840	-44.750314	0.010000	0.400206	178.684032	178.684032	178.684032	0.234635	0.000000	2.830000	800.813265	282.986442	0.560840
15.803663	0.000265	0.020124	0.020126	-44.253440	0.010000	0.400206	178.665076	178.665076	178.665076	0.234635	0.000000	2.830000	800.811038	282.986049	0.568918
16.031307	0.000273	0.020414	0.020416	-43.756580	0.010001	0.400205	178.645847	178.645847	178.645847	0.234635	0.000000	2.830000	800.808747	282.985644	0.577112
16.262231	0.000281	0.020708	0.020710	-43.259714	0.010001	0.400205	178.626342	178.626342	178.626342	0.234635	0.000000	2.830000	800.806390	282.985227	0.585425
16.496481	0.000289	0.021006	0.021008	-42.762864	0.010001	0.400205	178.606555	178.606555	178.606555	0.234635	0.000000	2.830000	800.803964	282.984799	0.593857
16.734105	0.000297	0.021309	0.021311	-42.265988	0.010001	0.400204	178.586483	178.586483	178.586483	0.234635	0.000000	2.830000	800.801467	282.984358	0.602411
16.975152	0.000306	0.021616	0.021618	-41.769133	0.010001	0.400203	178.566122	178.566122	178.566122	0.234634	0.000000	2.830000	800.798899	282.983904	0.611088
17.219671	0.000315	0.021927	0.021929	-41.272279	0.010001	0.400203	178.545468	178.545468	178.545468	0.234634	0.000000	2.830000	800.796256	282.983437	0.619890
17.467712	0.000324	0.022243	0.022245	-40.775432	0.010001	0.400202	178.524516	178.524516	178.524516	0.234634	0.000000	2.830000	800.793536	282.982956	0.628819
17.719326	0.000333	0.022563	0.022566	-40.278560	0.010001	0.400202	178.503263	178.503263	178.503263	0.234634	0.000000	2.830000	800.790737	282.982462	0.637876
17.974565	0.000343	0.022888	0.022891	-39.781706	0.010001	0.400201	178.481703	178.481703	178.481703	0.234634	0.000000	2.830000	800.787857	282.981953	0.647064
18.233480	0.000353	0.023218	0.023220	-39.284854	0.010001	0.400201	178.459833	178.459833	178.459833	0.234634	0.000000	2.830000	800.784893	282.981429	0.656384
18.496125	0.000363	0.023552	0.023555	-38.788001	0.010001	0.400200	178.437648	178.437648	178.437648	0.234634	0.000000	2.830000	800.781844	282.980890	0.665838
18.762553	0.000374	0.023891	0.023894	-38.291149	0.010001	0.400199	178.415144	178.415144	178.415144	0.234634	0.000000	2.830000	800.778706	282.980336	0.675428
19.032818	0.000385	0.024235	0.024238	-37.794301	0.010001	0.400199	178.392315	178.392315	178.392315	0.234634	0.000000	2.830000	800.775477	282.979765	0.685157
19.306977	0.000396	0.024584	0.024587	-37.297452	0.010001	0.400198	178.369157	178.369157	178.369157	0.234633	0.000000	2.830000	800.772154	282.979178	0.695026
19.585085	0.000407	0.024938	0.024941	-36.800604	0.010001	0.400197	178.345666	178.345666	178.345666	0.234633	0.000000	2.830000	800.768735	282.978574	0.705036
19.867199	0.000419	0.025297	0.025301	-36.303757	0.010001	0.400196	178.321836	178.321836	178.321836	0.234633	0.000000	2.830000	800.765217	282.977952	0.715191
20.153377	0.000431	0.025661	0.025665	-35.806909	0.010001	0.400196	178.297663	178.297663	178.297663	0.234633	0.000000	2.830000	800.761596	282.977312	0.725492
20.443677	0.000444	0.026031	0.026035	-35.310063	0.010001	0.400195	178.273142	178.273142	178.273142	0.234633	0.000000	2.830000	800.757871	282.976654	0.735942
20.738158	0.000457	0.026406	0.026410	-34.813224	0.010001	0.400194	178.248268	178.248268	178.248268	0.234633	0.000000	2.830000	800.754037	282.975977	0.746542
21.036882	0.000470	0.026786	0.026790	-34.316386	0.010001	0.400193	178.223036	178.223036	178.223036	0.234633	0.000000	2.830000	800.750093	282.975280	0.757295
21.339908	0.000484	0.027171	0.027176	-33.819547	0.010001	0.400192	178.197440	178.197440	178.197440	0.234632	0.000000	2.830000	800.746034	282.974563	0.768202
21.647300	0.000498	0.027563	0.027567	-33.322710	0.010001	0.400192	178.171475	178.171475	178.171475	0.234632	0.000000	2.830000	800.741857	282.973825	0.779267
21.959119	0.000512	0.027959	0.027964	-32.825871	0.010001	0.400191	178.145136	178.145136	178.145136	0.234632	0.000000	2.830000	800.737559	282.973065	0.790491
22.275430	0.000527	0.028362	0.028367	-32.329037	0.010001	0.400190	178.118418	178.118418	178.118418	0.234632	0.000000	2.830000	800.733136	282.972284	0.801876
22.596297	0.000542	0.028770	0.028775	-31.832207	0.010001	0.400189	178.091316	178.091316	178.091316	0.234632	0.000000	2.830000	800.728585	282.971479	0.813426
22.921786	0.000558	0.029185	0.029190	-31.335377	0.010001	0.400188	178.063822	178.063822	178.063822	0.234632	0.000000	2.830000	800.723902	282.970652	0.825141
23.251963	0.000574	0.029605	0.029610	-30.838548	0.010001	0.400187	178.035933	178.035933	178.035933	0.234631	0.000001	2.830000	800.719083	282.969800	0.837026
23.586897	0.000591	0.030031	0.030037	-30.341719	0.010001	0.400186	178.007642	178.007642	178.007642	0.234631	0.000001	2.830000	800.714125	282.968924	0.849082
23.926655	0.000608	0.030463	0.030469	-29.844895	0.010001	0.400185	177.978944	177.978944	177.978944	0.234631	0.000001	2.830000	800.709022	282.968022	0.861311
24.271307	0.000625	0.030902	0.030908	-29.348074	0.010001	0.400184	177.949832	177.949832	177.949832	0.234631	0.000001	2.830000	800.703772	282.967095	0.873716
24.620924	0.000644	0.031347	0.031353	-28.851253	0.010001	0.400182	177.920301	177.920301	177.920301	0.234631	0.000001	2.830000	800.698369	282.966140	0.886300
24.975577	0.000662	0.031798	0.031805	-28.354433	0.010001	0.400181	177.890344	177.890344	177.890344	0.234630	0.000001	2.830000	800.692809	282.965158	0.899065
25.335338	0.000682	0.032256	0.032263	-27.857617	0.010001	0.400180	177.859957	177.859957	177.859957	0.234630	0.000001	2.830000	800.687089	282.964147	0.912014
25.700282	0.000701	0.032720	0.032727	-27.360802	0.010001	0.400179	177.829131	177.829131	177.829131	0.234630	0.000001	2.830000	800.681202	282.963106	0.925150
26.070482	0.000722	0.033191	0.033199	-26.863991	0.010001	0.400178	177.797861	177.797861	177.797861	0.234630	0.000001	2.830000	800.675144	282.962036	0.938474
26.446016	0.000743	0.033669	0.033677	-26.367181	0.010001	0.400176	177.766141	177.766141	177.766141	0.234630	0.000001	2.830000	800.668911	282.960935	0.951991
26.826958	0.000764	0.034153	0.034162	-25.870375	0.010001	0.400175	177.733964	177.733964	177.733964	0.234629	0.000001	2.830000	800.662497	282.959801	0.965702
27.213388	0.000786	0.034645	0.034654	-25.373570	0.010001	0.400174	177.701324	177.701324	177.701324	0.234629	0.000001	2.830000	800.655898	282.958635	0.979610
27.605384	0.000809	0.035144	0.035153	-24.876767	0.010002	0.400172	177.668213	177.668213	177.668213	0.234629	0.000001	2.830000	800.649106	282.957435	0.993719
28.003026	0.000833	0.035649	0.035659	-24.379969	0.010002	0.400171	177.634626	177.634626	177.634626	0.234629	0.000001	2.830000	800.642118	282.956200	1.008031
28.406397	0.000857	0.036163	0.036173	-23.883171	0.010002	0.400169	177.600555	177.600555	177.600555	0.234628	0.000001	2.830000	800.634927	282.954929	1.022549
28.815578	0.000882	0.036683	0.036694	-23.386379	0.010002	0.400168	177.565993	177.565993	177.565993	0.234628	0.000001	2.830000	800.627527	282.953621	1.037276
29.230652	0.000907	0.037211	0.037222	-22.889589	0.010002	0.400166	177.530933	177.530933	177.530933	0.234628	0.000001	2.830000	800.619913	282.952276	1.052215
29.651706	0.000933	0.037746	0.037758	-22.392802	0.010002	0.400164	177.495369	177.495369	177.495369	0.234627	0.000001	2.830000	800.612078	282.950891	1.067369
30.078825	0.000961	0.038290	0.038302	-21.896017	0.010002	0.400163	177.459292	177.459292	177.459292	0.234627	0.000001	2.830000	800.604016	282.949466	1.082741
30.512097	0.000988	0.038841	0.038853	-21.399235	0.010002	0.400161	177.422695	177.422695	177.422695	0.234627	0.000002	2.830000	800.595720	282.948000	1.098334
30.951609	0.001017	0.039400	0.039413	-20.902458	0.010002	0.400159	177.385571	177.385571	177.385571	0.234626	0.000002	2.830000	800.587183	282.946491	1.114152
31.397452	0.001047	0.039967	0.039980	-20.405683	0.010002	0.400157	177.347913	177.347913	177.347913	0.234626	0.000002	2.830000	800.578399	282.944939	1.130198
31.849718	0.001077	0.040542	0.040556	-19.908912	0.010002	0.400156	177.309712	177.309712	177.309712	0.234626	0.000002	2.830000	800.569360	282.943342	1.146475
32.308498	0.001108	0.041125	0.041140	-19.412145	0.010002	0.400154	177.270961	177.270961	177.270961	0.234625	0.000002	2.830000	800.560059	282.941698	1.162986
32.773887	0.001140	0.041717	0.041732	-18.915382	0.010002	0.400152	177.231652	177.231652	177.231652	0.234625	0.000002	2.830000	800.550488	282.940006	1.179735
33.245979	0.001173	0.042317	0.042333	-18.418621	0.010002	0.400150	177.191777	177.191777	177.191777	0.234625	0.000002	2.830000	800.540639	282.938266	1.196724
33.724872	0.001207	0.042926	0.042943	-17.921865	0.010002	0.400147	177.151327	177.151327	177.151327	0.234624	0.000002	2.830000	800.530506	282.936475	1.213959
34.210663	0.001242	0.043544	0.043561	-17.425113	0.010002	0.400145	177.110295	177.110295	177.110295	0.234624	0.000002	2.830000	800.520078	282.934632	1.231441
34.703452	0.001279	0.044170	0.044189	-16.928365	0.010002	0.400143	177.068672	177.068672	177.068672	0.234624	0.000003	2.830000	800.509348	282.932735	1.249175
35.203338	0.001316	0.044806	0.044825	-16.431621	0.010002	0.400141	177.026449	177.026449	177.026449	0.234623	0.000003	2.830000	800.498306	282.930784	1.267165
35.710426	0.001354	0.045450	0.045470	-15.934882	0.010003	0.400138	176.983618	176.983618	176.983618	0.234623	0.000003	2.830000	800.486945	282.928776	1.285413
36.224818	0.001393	0.046104	0.046125	-15.438146	0.010003	0.400136	176.940171	176.940171	176.940171	0.234622	0.000003	2.830000	800.475254	282.926710	1.303924
36.746619	0.001433	0.046767	0.046789	-14.941417	0.010003	0.400133	176.896097	176.896097	176.896097	0.234622	0.000003	2.830000	800.463224	282.924583	1.322702
37.275937	0.001475	0.047440	0.047463	-14.444691	0.010003	0.400131	176.851389	176.851389	176.851389	0.234621	0.000003	2.830000	800.450845	282.922395	1.341749
37.812880	0.001518	0.048122	0.048146	-13.947970	0.010003	0.400128	176.806037	176.806037	176.806037	0.234621	0.000004	2.830000	800.438108	282.920144	1.361071
38.357556	0.001562	0.048814	0.048839	-13.451255	0.010003	0.400125	176.760032	176.760032	176.760032	0.234620	0.000004	2.830000	800.425001	282.917827	1.380671
38.910079	0.001607	0.049516	0.049543	-12.954545	0.010003	0.400123	176.713364	176.713364	176.713364	0.234620	0.000004	2.830000	800.411514	282.915444	1.400553
39.470560	0.001654	0.050229	0.050256	-12.457840	0.010003	0.400120	176.666024	176.666024	176.666024	0.234619	0.000004	2.830000	800.397636	282.912991	1.420721
40.039115	0.001702	0.050951	0.050979	-11.961140	0.010003	0.400117	176.618002	176.618002	176.618002	0.234619	0.000004	2.830000	800.383356	282.910466	1.441180
40.615860	0.001751	0.051684	0.051713	-11.464447	0.010003	0.400114	176.569289	176.569289	176.569289	0.234618	0.000005	2.830000	800.368662	282.907869	1.461932
41.200912	0.001802	0.052427	0.052458	-10.967759	0.010003	0.400111	176.519874	176.519874	176.519874	0.234618	0.000005	2.830000	800.353542	282.905196	1.482984
41.794392	0.001854	0.053181	0.053213	-10.471076	0.010003	0.400107	176.469747	176.469747	176.469747	0.234617	0.000005	2.830000	800.337983	282.902446	1.504338
42.396421	0.001908	0.053945	0.053979	-9.974401	0.010004	0.400104	176.418899	176.418899	176.418899	0.234616	0.000006	2.830000	800.321974	282.899616	1.526000
43.007121	0.001963	0.054721	0.054756	-9.477731	0.010004	0.400101	176.367318	176.367318	176.367318	0.234616	0.000006	2.830000	800.305501	282.896704	1.547973
43.626619	0.002020	0.055508	0.055545	-8.981068	0.010004	0.400097	176.314994	176.314994	176.314994	0.234615	0.000006	2.830000	800.288550	282.893708	1.570263
44.255040	0.002079	0.056306	0.056344	-8.484412	0.010004	0.400093	176.261917	176.261917	176.261917	0.234615	0.000007	2.830000	800.271107	282.890624	1.592873
44.892513	0.002139	0.057115	0.057155	-7.987763	0.010004	0.400090	176.208075	176.208075	176.208075	0.234614	0.000007	2.830000	800.253160	282.887452	1.615808
45.539168	0.002201	0.057936	0.057978	-7.491120	0.010004	0.400086	176.153458	176.153458	176.153458	0.234613	0.000007	2.830000	800.234692	282.884187	1.639074
46.195138	0.002265	0.058769	0.058813	-6.994485	0.010004	0.400082	176.098054	176.098054	176.098054	0.234612	0.000008	2.830000	800.215688	282.880827	1.662674
46.860558	0.002331	0.059614	0.059659	-6.497858	0.010004	0.400078	176.041853	176.041853	176.041853	0.234612	0.000008	2.830000	800.196135	282.877371	1.686614
47.535562	0.002398	0.060470	0.060518	-6.001238	0.010004	0.400074	175.984842	175.984842	175.984842	0.234611	0.000009	2.830000	800.176014	282.873813	1.710898
48.220290	0.002468	0.061339	0.061389	-5.504627	0.010005	0.400069	175.927010	175.927010	175.927010	0.234610	0.000009	2.830000	800.155310	282.870153	1.735531
48.914880	0.002539	0.062221	0.062273	-5.008023	0.010005	0.400065	175.868345	175.868345	175.868345	0.234609	0.000010	2.830000	800.134007	282.866387	1.760519
49.619476	0.002613	0.063115	0.063169	-4.511428	0.010005	0.400060	175.808835	175.808835	175.808835	0.234609	0.000011	2.830000	800.112086	282.862511	1.785866
50.334221	0.002689	0.064022	0.064078	-4.014842	0.010005	0.400055	175.748469	175.748469	175.748469	0.234608	0.000011	2.830000	800.089530	282.858523	1.811578
51.059262	0.002767	0.064941	0.065000	-3.518265	0.010005	0.400051	175.687233	175.687233	175.687233	0.234607	0.000012	2.830000	800.066320	282.854419	1.837659
51.794747	0.002847	0.065874	0.065936	-3.021697	0.010005	0.400046	175.625115	175.625115	175.625115	0.234606	0.000012	2.830000	800.042438	282.850197	1.864116
52.540826	0.002929	0.066821	0.066885	-2.525138	0.010005	0.400040	175.562103	175.562103	175.562103	0.234605	0.000013	2.830000	800.017864	282.845852	1.890953
53.297652	0.003014	0.067780	0.067847	-2.028589	0.010006	0.400035	175.498183	175.498183	175.498183	0.234604	0.000014	2.830000	799.992578	282.841381	1.918176
54.065379	0.003102	0.068754	0.068824	-1.532050	0.010006	0.400030	175.433343	175.433343	175.433343	0.234603	0.000015	2.830000	799.966560	282.836780	1.945791
54.844166	0.003192	0.069741	0.069814	-1.035521	0.010006	0.400024	175.367569	175.367569	175.367569	0.234602	0.000016	2.830000	799.939788	282.832046	1.973802
55.634170	0.003284	0.070743	0.070819	-0.539004	0.010006	0.400018	175.300848	175.300848	175.300848	0.234601	0.000017	2.830000	799.912240	282.827175	2.002217
56.435554	0.003379	0.071759	0.071838	-0.042496	0.010006	0.400013	175.233166	175.233166	175.233166	0.234600	0.000018	2.830000	799.883895	282.822162	2.031040
57.248482	0.003477	0.072789	0.072872	0.453999	0.010006	0.400006	175.164510	175.164510	175.164510	0.234599	0.000019	2.830000	799.854729	282.817004	2.060277
58.073119	0.003578	0.073834	0.073920	0.950484	0.010007	0.400000	175.094865	175.094865	175.094865	0.234598	0.000020	2.830000	799.824718	282.811697	2.089935
58.909635	0.003682	0.074894	0.074984	1.446956	0.010007	0.399994	175.024217	175.024217	175.024217	0.234596	0.000021	2.830000	799.793837	282.806236	2.120019
59.758201	0.003789	0.075969	0.076063	1.943416	0.010007	0.399987	174.952552	174.952552	174.952552	0.234595	0.000022	2.830000	799.762063	282.800616	2.150535
60.618990	0.003898	0.077059	0.077157	2.439863	0.010007	0.399980	174.879854	174.879854	174.879854	0.234594	0.000023	2.830000	799.729368	282.794834	2.181490
61.492178	0.004011	0.078165	0.078267	2.936298	0.010007	0.399973	174.806111	174.806111	174.806111	0.234593	0.000025	2.830000	799.695727	282.788884	2.212890
62.377944	0.004128	0.079286	0.079393	3.432719	0.010008	0.399966	174.731305	174.731305	174.731305	0.234591	0.000026	2.830000	799.661112	282.782761	2.244741
63.276469	0.004247	0.080424	0.080536	3.929126	0.010008	0.399959	174.655422	174.655422	174.655422	0.234590	0.000028	2.830000	799.625495	282.776462	2.277050
64.187937	0.004370	0.081577	0.081694	4.425520	0.010008	0.399951	174.578447	174.578447	174.578447	0.234589	0.000029	2.830000	799.588846	282.769979	2.309824
65.112534	0.004497	0.082747	0.082869	4.921898	0.010008	0.399943	174.500363	174.500363	174.500363	0.234587	0.000031	2.830000	799.551137	282.763309	2.343068
66.050449	0.004628	0.083934	0.084061	5.418262	0.010009	0.399935	174.421155	174.421155	174.421155	0.234586	0.000033	2.830000	799.512336	282.756445	2.376790
67.001875	0.004762	0.085138	0.085271	5.914610	0.010009	0.399927	174.340806	174.340806	174.340806	0.234584	0.000035	2.830000	799.472413	282.749382	2.410996
67.967006	0.004900	0.086358	0.086497	6.410943	0.010009	0.399918	174.259301	174.259301	174.259301	0.234583	0.000037	2.830000	799.431333	282.742115	2.445694
68.946038	0.005042	0.087596	0.087741	6.907259	0.010009	0.399909	174.176622	174.176622	174.176622	0.234581	0.000039	2.830000	799.389065	282.734637	2.480890
69.939174	0.005188	0.088852	0.089003	7.403558	0.010010	0.399900	174.092753	174.092753	174.092753	0.234579	0.000042	2.830000	799.345574	282.726943	2.516591
70.946615	0.005338	0.090125	0.090283	7.899840	0.010010	0.399891	174.007677	174.007677	174.007677	0.234578	0.000044	2.830000	799.300825	282.719025	2.552806
71.968567	0.005493	0.091417	0.091582	8.396105	0.010010	0.399881	173.921375	173.921375	173.921375	0.234576	0.000047	2.830000	799.254781	282.710879	2.589540
73.005241	0.005652	0.092727	0.092899	8.892351	0.010011	0.399871	173.833831	173.833831	173.833831	0.234574	0.000049	2.830000	799.207404	282.702496	2.626802
74.056847	0.005816	0.094055	0.094234	9.388578	0.010011	0.399861	173.745027	173.745027	173.745027	0.234572	0.000052	2.830000	799.158658	282.693870	2.664599
75.123601	0.005984	0.095402	0.095589	9.884786	0.010011	0.399851	173.654944	173.654944	173.654944	0.234570	0.000055	2.830000	799.108501	282.684994	2.702939
76.205721	0.006158	0.096768	0.096964	10.380974	0.010011	0.399840	173.563565	173.563565	173.563565	0.234568	0.000059	2.830000	799.056894	282.675861	2.741829
77.303429	0.006336	0.098154	0.098358	10.877141	0.010012	0.399829	173.470869	173.470869	173.470869	0.234566	0.000062	2.830000	799.003794	282.666464	2.781277
78.416948	0.006519	0.099559	0.099772	11.373287	0.010012	0.399817	173.376840	173.376840	173.376840	0.234564	0.000066	2.830000	798.949159	282.656795	2.821292
79.546508	0.006708	0.100984	0.101206	11.869412	0.010012	0.399805	173.281457	173.281457	173.281457	0.234562	0.000069	2.830000	798.892945	282.646845	2.861880
80.692338	0.006903	0.102429	0.102661	12.365514	0.010013	0.399793	173.184701	173.184701	173.184701	0.234560	0.000074	2.830000	798.835105	282.636607	2.903052
81.854673	0.007103	0.103894	0.104137	12.861593	0.010013	0.399781	173.086552	173.086552	173.086552	0.234557	0.000078	2.830000	798.775593	282.626073	2.944814
83.033751	0.007308	0.105381	0.105634	13.357648	0.010014	0.399768	172.986990	172.986990	172.986990	0.234555	0.000082	2.830000	798.714361	282.615234	2.987175
84.229813	0.007520	0.106888	0.107152	13.853679	0.010014	0.399755	172.885996	172.885996	172.885996	0.234553	0.000087	2.830000	798.651360	282.604080	3.030143
85.443104	0.007738	0.108416	0.108692	14.349685	0.010014	0.399741	172.783547	172.783547	172.783547	0.234550	0.000092	2.830000	798.586538	282.592604	3.073728
86.673872	0.007962	0.109966	0.110254	14.845666	0.010015	0.399727	172.679624	172.679624	172.679624	0.234548	0.000098	2.830000	798.519843	282.580796	3.117938
87.922369	0.008192	0.111538	0.111838	15.341619	0.010015	0.399713	172.574205	172.574205	172.574205	0.234545	0.000104	2.830000	798.451221	282.568645	3.162782
89.188849	0.008430	0.113132	0.113445	15.837545	0.010016	0.399698	172.467269	172.467269	172.467269	0.234542	0.000110	2.830000	798.380617	282.556143	3.208269
90.473572	0.008674	0.114748	0.115075	16.333444	0.010016	0.399683	172.358794	172.358794	172.358794	0.234539	0.000116	2.830000	798.307973	282.543279	3.254409
91.776802	0.008925	0.116387	0.116728	16.829313	0.010017	0.399667	172.248758	172.248758	172.248758	0.234536	0.000123	2.830000	798.233232	282.530043	3.301209
93.098803	0.009183	0.118049	0.118405	17.325152	0.010017	0.399651	172.137138	172.137138	172.137138	0.234533	0.000130	2.830000	798.156333	282.516423	3.348680
94.439848	0.009449	0.119734	0.120106	17.820961	0.010018	0.399635	172.023911	172.023911	172.023911	0.234530	0.000138	2.830000	798.077214	282.502409	3.396831
95.800210	0.009723	0.121443	0.121831	18.316738	0.010018	0.399618	171.909056	171.909056	171.909056	0.234527	0.000146	2.830000	797.995811	282.487990	3.445673
97.180167	0.010004	0.123175	0.123581	18.812483	0.010019	0.399600	171.792547	171.792547	171.792547	0.234524	0.000155	2.830000	797.912058	282.473153	3.495214
98.580001	0.010293	0.124932	0.125356	19.308195	0.010019	0.399582	171.674362	171.674362	171.674362	0.234520	0.000164	2.830000	797.825889	282.457888	3.545464
100.000000	0.010591	0.126714	0.127156	19.803872	0.010020	0.399563	171.554476	171.554476	171.554476	0.234517	0.000173	2.830000	797.737233	282.442180	3.596434
101.440453	0.010898	0.128520	0.128981	20.299513	0.010020	0.399544	171.432865	171.432865	171.432865	0.234513	0.000184	2.830000	797.646020	282.426018	3.648134
102.901655	0.011213	0.130352	0.130833	20.795119	0.010021	0.399525	171.309504	171.309504	171.309504	0.234510	0.000194	2.830000	797.552176	282.409388	3.700574
104.383905	0.011538	0.132209	0.132711	21.290686	0.010022	0.399504	171.184369	171.184369	171.184369	0.234506	0.000206	2.830000	797.455625	282.392278	3.753764
105.887506	0.011871	0.134092	0.134616	21.786216	0.010022	0.399484	171.057432	171.057432	171.057432	0.234502	0.000218	2.830000	797.356291	282.374672	3.807716
107.412766	0.012215	0.136001	0.136548	22.281705	0.010023	0.399462	170.928670	170.928670	170.928670	0.234498	0.000231	2.830000	797.254094	282.356557	3.862439
108.959997	0.012568	0.137936	0.138508	22.777154	0.010023	0.399440	170.798055	170.798055	170.798055	0.234494	0.000244	2.830000	797.148950	282.337919	3.917946
110.529514	0.012932	0.139899	0.140495	23.272561	0.010024	0.399417	170.665561	170.665561	170.665561	0.234489	0.000259	2.830000	797.040777	282.318741	3.974246
112.121640	0.013306	0.141889	0.142511	23.767924	0.010025	0.399394	170.531161	170.531161	170.531161	0.234485	0.000274	2.830000	796.929488	282.299009	4.031351
113.736699	0.013690	0.143906	0.144556	24.263243	0.010026	0.399370	170.394828	170.394828	170.394828	0.234481	0.000290	2.830000	796.814993	282.278707	4.089272
115.375023	0.014086	0.145951	0.146629	24.758516	0.010026	0.399345	170.256533	170.256533	170.256533	0.234476	0.000307	2.830000	796.697201	282.257818	4.148021
117.036946	0.014494	0.148024	0.148732	25.253742	0.010027	0.399320	170.116250	170.116250	170.116250	0.234471	0.000325	2.830000	796.576017	282.236324	4.207610
118.722808	0.014913	0.150126	0.150865	25.748920	0.010028	0.399294	169.973948	169.973948	169.973948	0.234466	0.000344	2.830000	796.451345	282.214210	4.268050
120.432955	0.015344	0.152257	0.153028	26.244048	0.010029	0.399267	169.829600	169.829600	169.829600	0.234461	0.000364	2.830000	796.323085	282.191457	4.329353
122.167735	0.015787	0.154417	0.155222	26.739124	0.010029	0.399239	169.683176	169.683176	169.683176	0.234456	0.000386	2.830000	796.191135	282.168046	4.391532
123.927504	0.016243	0.156607	0.157447	27.234147	0.010030	0.399211	169.534646	169.534646	169.534646	0.234450	0.000408	2.830000	796.055390	282.143960	4.454598
125.712621	0.016713	0.158827	0.159704	27.729116	0.010031	0.399181	169.383981	169.383981	169.383981	0.234445	0.000432	2.830000	795.915741	282.119177	4.518563
127.523453	0.017196	0.161078	0.161993	28.224029	0.010032	0.399151	169.231148	169.231148	169.231148	0.234439	0.000458	2.830000	795.772077	282.093679	4.583442
129.360368	0.017692	0.163359	0.164314	28.718885	0.010033	0.399120	169.076118	169.076118	169.076118	0.234433	0.000485	2.830000	795.624285	282.067444	4.649246
131.223743	0.018203	0.165671	0.166668	29.213681	0.010034	0.399088	168.918859	168.918859	168.918859	0.234427	0.000513	2.830000	795.472245	282.040452	4.715988
133.113960	0.018729	0.168015	0.169055	29.708416	0.010035	0.399055	168.759339	168.759339	168.759339	0.234420	0.000543	2.830000	795.315838	282.012680	4.783682
135.031404	0.019270	0.170390	0.171477	30.203088	0.010036	0.399021	168.597526	168.597526	168.597526	0.234414	0.000575	2.830000	795.154940	281.984107	4.852340
136.976468	0.019826	0.172798	0.173932	30.697696	0.010037	0.398986	168.433387	168.433387	168.433387	0.234407	0.000609	2.830000	794.989423	281.954709	4.921976
138.949549	0.020399	0.175239	0.176422	31.192237	0.010038	0.398951	168.266888	168.266888	168.266888	0.234400	0.000645	2.830000	794.819156	281.924464	4.992604
140.951052	0.020987	0.177713	0.178948	31.686709	0.010039	0.398914	168.097995	168.097995	168.097995	0.234393	0.000683	2.830000	794.644004	281.893345	5.064237
142.981386	0.021593	0.180220	0.181509	32.181111	0.010040	0.398876	167.926676	167.926676	167.926676	0.234385	0.000723	2.830000	794.463828	281.861329	5.136890
145.040966	0.022216	0.182761	0.184106	32.675441	0.010042	0.398837	167.752894	167.752894	167.752894	0.234378	0.000765	2.830000	794.278487	281.828389	5.210576
147.130213	0.022857	0.185336	0.186740	33.169696	0.010043	0.398797	167.576614	167.576614	167.576614	0.234370	0.000810	2.830000	794.087834	281.794500	5.285310
149.249555	0.023516	0.187946	0.189411	33.663874	0.010044	0.398755	167.397802	167.397802	167.397802	0.234362	0.000858	2.830000	793.891719	281.759633	5.361106
151.399424	0.024195	0.190590	0.192120	34.157973	0.010045	0.398713	167.216420	167.216420	167.216420	0.234353	0.000908	2.830000	793.689988	281.723762	5.437980
153.580262	0.024892	0.193270	0.194867	34.651991	0.010047	0.398669	167.032432	167.032432	167.032432	0.234345	0.000961	2.830000	793.482481	281.686857	5.515945
155.792513	0.025610	0.195986	0.197652	35.145925	0.010048	0.398624	166.845801	166.845801	166.845801	0.234336	0.001018	2.830000	793.269037	281.648888	5.595017
158.036631	0.026348	0.198738	0.200477	35.639773	0.010049	0.398578	166.656489	166.656489	166.656489	0.234327	0.001077	2.830000	793.049487	281.609826	5.675212
160.313075	0.027108	0.201526	0.203341	36.133532	0.010051	0.398530	166.464457	166.464457	166.464457	0.234317	0.001141	2.830000	792.823659	281.569639	5.756544
162.622309	0.027889	0.204352	0.206246	36.627200	0.010052	0.398481	166.269668	166.269668	166.269668	0.234307	0.001208	2.830000	792.591378	281.528295	5.839029
164.964807	0.028692	0.207214	0.209191	37.120773	0.010054	0.398430	166.072081	166.072081	166.072081	0.234297	0.001278	2.830000	792.352461	281.485760	5.922683
167.341048	0.029518	0.210115	0.212178	37.614250	0.010055	0.398378	165.871656	165.871656	165.871656	0.234287	0.001353	2.830000	792.106722	281.442001	6.007522
169.751517	0.030368	0.213053	0.215206	38.107628	0.010057	0.398325	165.668354	165.668354	165.668354	0.234276	0.001433	2.830000	791.853969	281.396984	6.093562
172.196708	0.031243	0.216030	0.218277	38.600903	0.010059	0.398270	165.462133	165.462133	165.462133	0.234265	0.001517	2.830000	791.594007	281.350671	6.180820
174.677121	0.032142	0.219046	0.221391	39.094073	0.010060	0.398213	165.252951	165.252951	165.252951	0.234254	0.001606	2.830000	791.326632	281.303026	6.269312
177.193263	0.033067	0.222101	0.224549	39.587134	0.010062	0.398155	165.040767	165.040767	165.040767	0.234242	0.001700	2.830000	791.051638	281.254012	6.359054
179.745648	0.034018	0.225195	0.227750	40.080084	0.010064	0.398095	164.825538	164.825538	164.825538	0.234230	0.001800	2.830000	790.768812	281.203588	6.450065
182.334800	0.034996	0.228330	0.230997	40.572918	0.010066	0.398034	164.607220	164.607220	164.607220	0.234217	0.001905	2.830000	790.477935	281.151716	6.542361
184.961247	0.036003	0.231505	0.234288	41.065634	0.010068	0.397970	164.385769	164.385769	164.385769	0.234204	0.002017	2.830000	790.178783	281.098354	6.635958
187.625527	0.037037	0.234721	0.237625	41.558229	0.010070	0.397905	164.161141	164.161141	164.161141	0.234190	0.002135	2.830000	789.871125	281.043459	6.730876
190.328185	0.038102	0.237978	0.241009	42.050698	0.010072	0.397838	163.933290	163.933290	163.933290	0.234177	0.002260	2.830000	789.554724	280.986989	6.827132
193.069773	0.039196	0.241277	0.244440	42.543038	0.010074	0.397769	163.702171	163.702171	163.702171	0.234162	0.002393	2.830000	789.229338	280.928898	6.924743
195.850852	0.040322	0.244617	0.247918	43.035245	0.010076	0.397698	163.467738	163.467738	163.467738	0.234147	0.002533	2.830000	788.894718	280.869140	7.023728
198.671992	0.041480	0.247999	0.251444	43.527315	0.010078	0.397624	163.229943	163.229943	163.229943	0.234132	0.002681	2.830000	788.550608	280.807668	7.124105
201.533769	0.042670	0.251425	0.255020	44.019245	0.010080	0.397549	162.988739	162.988739	162.988739	0.234116	0.002838	2.830000	788.196745	280.744434	7.225893
204.436768	0.043895	0.254893	0.258645	44.511030	0.010083	0.397472	162.744078	162.744078	162.744078	0.234100	0.003004	2.830000	787.832859	280.679388	7.329110
207.381584	0.045154	0.258404	0.262320	45.002666	0.010085	0.397392	162.495909	162.495909	162.495909	0.234083	0.003180	2.830000	787.458676	280.612479	7.433776
210.368818	0.046449	0.261959	0.266045	45.494148	0.010088	0.397310	162.244184	162.244184	162.244184	0.234066	0.003367	2.830000	787.073910	280.543653	7.539909
213.399082	0.047780	0.265558	0.269822	45.985472	0.010090	0.397226	161.988853	161.988853	161.988853	0.234048	0.003564	2.830000	786.678271	280.472857	7.647529
216.472995	0.049149	0.269201	0.273651	46.476634	0.010093	0.397139	161.729864	161.729864	161.729864	0.234029	0.003772	2.830000	786.271462	280.400036	7.756656
219.591187	0.050557	0.272889	0.277532	46.967629	0.010095	0.397050	161.467166	161.467166	161.467166	0.234010	0.003993	2.830000	785.853174	280.325132	7.867309
222.754295	0.052005	0.276621	0.281467	47.458451	0.010098	0.396958	161.200706	161.200706	161.200706	0.233990	0.004227	2.830000	785.423096	280.248086	7.979508
225.962966	0.053493	0.280399	0.285456	47.949096	0.010101	0.396863	160.930431	160.930431	160.930431	0.233969	0.004474	2.830000	784.980904	280.168839	8.093274
229.217857	0.055023	0.284222	0.289499	48.439558	0.010104	0.396766	160.656287	160.656287	160.656287	0.233948	0.004735	2.830000	784.526270	280.087329	8.208626
232.519632	0.056597	0.288091	0.293598	48.929832	0.010107	0.396666	160.378220	160.378220	160.378220	0.233926	0.005012	2.830000	784.058854	280.003492	8.325586
235.868968	0.058215	0.292006	0.297752	49.419913	0.010110	0.396563	160.096174	160.096174	160.096174	0.233903	0.005305	2.830000	783.578309	279.917262	8.444174
239.266550	0.059878	0.295966	0.301963	49.909795	0.010113	0.396457	159.810095	159.810095	159.810095	0.233880	0.005615	2.830000	783.084281	279.828574	8.564410
242.713072	0.061588	0.299974	0.306231	50.399472	0.010117	0.396348	159.519924	159.519924	159.519924	0.233856	0.005944	2.830000	782.576405	279.737358	8.686317
246.209240	0.063346	0.304028	0.310557	50.888938	0.010120	0.396236	159.225604	159.225604	159.225604	0.233830	0.006291	2.830000	782.054308	279.643543	8.809915
249.755769	0.065153	0.308128	0.314941	51.378186	0.010124	0.396120	158.927078	158.927078	158.927078	0.233804	0.006658	2.830000	781.517607	279.547057	8.935226
253.353383	0.067011	0.312276	0.319385	51.867211	0.010127	0.396002	158.624285	158.624285	158.624285	0.233777	0.007047	2.830000	780.965910	279.447826	9.062271
257.002820	0.068921	0.316471	0.323888	52.356006	0.010131	0.395880	158.317167	158.317167	158.317167	0.233750	0.007458	2.830000	780.398816	279.345773	9.191073
260.704825	0.070885	0.320713	0.328453	52.844564	0.010135	0.395754	158.005663	158.005663	158.005663	0.233721	0.007894	2.830000	779.815914	279.240820	9.321653
264.460155	0.072903	0.325002	0.333078	53.332878	0.010139	0.395625	157.689712	157.689712	157.689712	0.233691	0.008354	2.830000	779.216784	279.132887	9.454033
268.269580	0.074977	0.329339	0.337766	53.820940	0.010143	0.395492	157.369251	157.369251	157.369251	0.233660	0.008842	2.830000	778.600993	279.021890	9.588236
272.133877	0.077110	0.333723	0.342516	54.308744	0.010147	0.395355	157.044218	157.044218	157.044218	0.233628	0.009357	2.830000	777.968103	278.907746	9.724285
276.053838	0.079301	0.338155	0.347329	54.796282	0.010151	0.395214	156.714549	156.714549	156.714549	0.233595	0.009903	2.830000	777.317660	278.790366	9.862202
280.030263	0.081553	0.342635	0.352207	55.283546	0.010155	0.395069	156.380180	156.380180	156.380180	0.233560	0.010480	2.830000	776.649203	278.669663	10.002010
284.063968	0.083868	0.347162	0.357149	55.770527	0.010160	0.394920	156.041045	156.041045	156.041045	0.233525	0.011090	2.830000	775.962259	278.545544	10.143731
288.155776	0.086247	0.351736	0.362156	56.257218	0.010165	0.394767	155.697078	155.697078	155.697078	0.233488	0.011736	2.830000	775.256346	278.417916	10.287390
292.306525	0.088692	0.356359	0.367230	56.743610	0.010169	0.394609	155.348212	155.348212	155.348212	0.233450	0.012420	2.830000	774.530969	278.286682	10.433008
296.517063	0.091204	0.361028	0.372370	57.229694	0.010174	0.394447	154.994380	154.994380	154.994380	0.233410	0.013143	2.830000	773.785623	278.151744	10.580610
300.788252	0.093786	0.365745	0.377578	57.715461	0.010179	0.394280	154.635513	154.635513	154.635513	0.233369	0.013907	2.830000	773.019791	278.013001	10.730219
305.120965	0.096439	0.370509	0.382854	58.200902	0.010185	0.394109	154.271542	154.271542	154.271542	0.233327	0.014716	2.830000	772.232945	277.870348	10.881859
309.516090	0.099164	0.375319	0.388199	58.686006	0.010190	0.393932	153.902397	153.902397	153.902397	0.233283	0.015572	2.830000	771.424546	277.723679	11.035552
313.974523	0.101965	0.380176	0.393613	59.170764	0.010196	0.393750	153.528006	153.528006	153.528006	0.233237	0.016477	2.830000	770.594042	277.572886	11.191324
318.497179	0.104842	0.385080	0.399097	59.655167	0.010201	0.393564	153.148298	153.148298	153.148298	0.233190	0.017434	2.830000	769.740872	277.417857	11.349198
323.084981	0.107798	0.390029	0.404652	60.139202	0.010207	0.393371	152.763200	152.763200	152.763200	0.233141	0.018446	2.830000	768.864461	277.258477	11.509197
327.738869	0.110834	0.395024	0.410278	60.622859	0.010213	0.393174	152.372638	152.372638	152.372638	0.233090	0.019517	2.830000	767.964222	277.094629	11.671346
332.459793	0.113953	0.400064	0.415977	61.106128	0.010219	0.392970	151.976539	151.976539	151.976539	0.233037	0.020650	2.830000	767.039557	276.926193	11.835669
337.248720	0.117157	0.405149	0.421748	61.588996	0.010226	0.392761	151.574827	151.574827	151.574827	0.232982	0.021847	2.830000	766.089856	276.753046	12.002189
342.106630	0.120448	0.410278	0.427593	62.071452	0.010232	0.392546	151.167426	151.167426	151.167426	0.232926	0.023114	2.830000	765.114497	276.575062	12.170932
347.034515	0.123828	0.415450	0.433511	62.553483	0.010239	0.392325	150.754259	150.754259	150.754259	0.232867	0.024453	2.830000	764.112845	276.392112	12.341920
352.033384	0.127299	0.420665	0.439504	63.035077	0.010246	0.392097	150.335248	150.335248	150.335248	0.232805	0.025869	2.830000	763.084253	276.204064	12.515178
357.104260	0.130864	0.425922	0.445573	63.516221	0.010253	0.391863	149.910316	149.910316	149.910316	0.232742	0.027366	2.830000	762.028063	276.010783	12.690730
362.248179	0.134524	0.431221	0.451717	63.996901	0.010261	0.391622	149.479383	149.479383	149.479383	0.232676	0.028950	2.830000	760.943604	275.812131	12.868601
367.466194	0.138283	0.436560	0.457937	64.477104	0.010268	0.391374	149.042368	149.042368	149.042368	0.232608	0.030623	2.830000	759.830194	275.607966	13.048813
372.759372	0.142142	0.441938	0.464235	64.956815	0.010276	0.391119	148.599191	148.599191	148.599191	0.232537	0.032393	2.830000	758.687137	275.398144	13.231391
378.128796	0.146104	0.447355	0.470609	65.436020	0.010284	0.390857	148.149770	148.149770	148.149770	0.232463	0.034264	2.830000	757.513728	275.182517	13.416359
383.575563	0.150172	0.452810	0.477062	65.914703	0.010292	0.390588	147.694023	147.694023	147.694023	0.232386	0.036242	2.830000	756.309247	274.960933	13.603739
389.100789	0.154347	0.458300	0.483593	66.392850	0.010301	0.390311	147.231867	147.231867	147.231867	0.232307	0.038332	2.830000	755.072964	274.733240	13.793557
394.705603	0.158633	0.463826	0.490203	66.870443	0.010310	0.390026	146.763217	146.763217	146.763217	0.232224	0.040542	2.830000	753.804138	274.499278	13.985834
400.391152	0.163031	0.469386	0.496893	67.347468	0.010319	0.389733	146.287989	146.287989	146.287989	0.232138	0.042877	2.830000	752.502017	274.258886	14.180595
406.158599	0.167546	0.474978	0.503662	67.823906	0.010328	0.389431	145.806097	145.806097	145.806097	0.232049	0.045345	2.830000	751.165835	274.011901	14.377861
412.009123	0.172178	0.480600	0.510511	68.299740	0.010338	0.389121	145.317455	145.317455	145.317455	0.231956	0.047954	2.830000	749.794819	273.758153	14.577656
417.943921	0.176931	0.486252	0.517442	68.774953	0.010347	0.388802	144.821977	144.821977	144.821977	0.231860	0.050710	2.830000	748.388183	273.497472	14.780002
423.964207	0.181808	0.491931	0.524453	69.249525	0.010358	0.388475	144.319574	144.319574	144.319574	0.231760	0.053623	2.830000	746.945132	273.229683	14.984921
430.071212	0.186811	0.497636	0.531545	69.723437	0.010368	0.388138	143.810159	143.810159	143.810159	0.231656	0.056700	2.830000	745.464860	272.954608	15.192435
436.266186	0.191944	0.503365	0.538719	70.196670	0.010379	0.387791	143.293643	143.293643	143.293643	0.231547	0.059952	2.830000	743.946554	272.672064	15.402566
442.550395	0.197208	0.509115	0.545975	70.669204	0.010390	0.387435	142.769937	142.769937	142.769937	0.231435	0.063387	2.830000	742.389389	272.381866	15.615333
448.925126	0.202607	0.514884	0.553313	71.141017	0.010401	0.387069	142.238950	142.238950	142.238950	0.231318	0.067016	2.830000	740.792533	272.083827	15.830758
455.391681	0.208143	0.520671	0.560733	71.612088	0.010413	0.386692	141.700593	141.700593	141.700593	0.231196	0.070848	2.830000	739.155148	271.777753	16.048861
461.951385	0.213820	0.526472	0.568236	72.082394	0.010425	0.386305	141.154774	141.154774	141.154774	0.231069	0.074897	2.830000	737.476386	271.463449	16.269661
468.605578	0.219640	0.532285	0.575821	72.551914	0.010437	0.385907	140.601403	140.601403	140.601403	0.230938	0.079172	2.830000	735.755394	271.140716	16.493177
475.355621	0.225607	0.538108	0.583488	73.020623	0.010450	0.385498	140.040387	140.040387	140.040387	0.230800	0.083687	2.830000	733.991313	270.809353	16.719428
482.202895	0.231722	0.543937	0.591238	73.488497	0.010463	0.385078	139.471634	139.471634	139.471634	0.230658	0.088455	2.830000	732.183279	270.469153	16.948431
489.148802	0.237990	0.549769	0.599070	73.955511	0.010477	0.384645	138.895053	138.895053	138.895053	0.230510	0.093488	2.830000	730.330423	270.119909	17.180203
496.194760	0.244412	0.555602	0.606985	74.421640	0.010491	0.384201	138.310550	138.310550	138.310550	0.230355	0.098802	2.830000	728.431874	269.761407	17.414761
503.342213	0.250993	0.561432	0.614982	74.886856	0.010505	0.383745	137.718033	137.718033	137.718033	0.230194	0.104412	2.830000	726.486759	269.393433	17.652120
510.592621	0.257734	0.567255	0.623061	75.351133	0.010520	0.383276	137.117409	137.117409	137.117409	0.230027	0.110333	2.830000	724.494203	269.015770	17.892295
517.947468	0.264639	0.573067	0.631221	75.814443	0.010535	0.382794	136.508586	136.508586	136.508586	0.229853	0.116582	2.830000	722.453331	268.628196	18.135299
525.408258	0.271710	0.578866	0.639462	76.276755	0.010551	0.382298	135.891469	135.891469	135.891469	0.229672	0.123177	2.830000	720.363269	268.230488	18.381145
532.976517	0.278951	0.584646	0.647784	76.738042	0.010567	0.381789	135.265967	135.265967	135.265967	0.229483	0.130135	2.830000	718.223147	267.822420	18.629845
540.653794	0.286364	0.590404	0.656187	77.198271	0.010583	0.381266	134.631987	134.631987	134.631987	0.229287	0.137476	2.830000	716.032099	267.403763	18.881410
548.441658	0.293952	0.596135	0.664669	77.657412	0.010600	0.380729	133.989436	133.989436	133.989436	0.229082	0.145220	2.830000	713.789261	266.974286	19.135848
556.341702	0.301718	0.601834	0.673230	78.115431	0.010618	0.380177	133.338223	133.338223	133.338223	0.228870	0.153389	2.830000	711.493781	266.533756	19.393170
564.355543	0.309665	0.607497	0.681868	78.572295	0.010636	0.379610	132.678257	132.678257	132.678257	0.228648	0.162003	2.830000	709.144812	266.081938	19.653380
572.484820	0.317794	0.613118	0.690584	79.027971	0.010654	0.379028	132.009446	132.009446	132.009446	0.228417	0.171087	2.830000	706.741519	265.618594	19.916486
580.731195	0.326110	0.618692	0.699377	79.482421	0.010673	0.378430	131.331700	131.331700	131.331700	0.228177	0.180664	2.830000	704.283078	265.143488	20.182492
589.096355	0.334613	0.624214	0.708244	79.935610	0.010693	0.377815	130.644930	130.644930	130.644930	0.227927	0.190760	2.830000	701.768681	264.656379	20.451400
597.582011	0.343307	0.629678	0.717185	80.387499	0.010713	0.377185	129.949048	129.949048	129.949048	0.227666	0.201401	2.830000	699.197535	264.157026	20.723211
606.189899	0.352194	0.635078	0.726199	80.838051	0.010734	0.376537	129.243966	129.243966	129.243966	0.227395	0.212615	2.830000	696.568865	263.645188	20.997926
614.921780	0.361275	0.640407	0.735283	81.287226	0.010756	0.375872	128.529598	128.529598	128.529598	0.227112	0.224431	2.830000	693.881917	263.120625	21.275541
623.779440	0.370554	0.645660	0.744437	81.734981	0.010778	0.375190	127.805860	127.805860	127.805860	0.226818	0.236878	2.830000	691.135961	262.583093	21.556054
632.764690	0.380032	0.650829	0.753659	82.181276	0.010800	0.374489	127.072669	127.072669	127.072669	0.226511	0.249989	2.830000	688.330291	262.032353	21.839459
641.879368	0.389710	0.655907	0.762947	82.626067	0.010823	0.373770	126.329942	126.329942	126.329942	0.226192	0.263796	2.830000	685.464228	261.468162	22.125748
651.125339	0.399590	0.660888	0.772299	83.069308	0.010847	0.373032	125.577602	125.577602	125.577602	0.225860	0.278333	2.830000	682.537126	260.890283	22.414910
660.504493	0.409674	0.665763	0.781712	83.510955	0.010872	0.372275	124.815569	124.815569	124.815569	0.225514	0.293636	2.830000	679.548369	260.298477	22.706935
670.018750	0.419963	0.670526	0.791185	83.950959	0.010898	0.371498	124.043769	124.043769	124.043769	0.225153	0.309742	2.830000	676.497380	259.692508	23.001809
679.670056	0.430457	0.675167	0.800714	84.389273	0.010924	0.370701	123.262130	123.262130	123.262130	0.224778	0.326688	2.830000	673.383618	259.072143	23.299514
689.460384	0.441158	0.679678	0.810298	84.825847	0.010950	0.369884	122.470581	122.470581	122.470581	0.224387	0.344516	2.830000	670.206585	258.437152	23.600033
699.391737	0.452066	0.684052	0.819933	85.260628	0.010978	0.369045	121.669056	121.669056	121.669056	0.223981	0.363266	2.830000	666.965828	257.787309	23.903344
709.466146	0.463181	0.688278	0.829616	85.693566	0.011006	0.368186	120.857491	120.857491	120.857491	0.223557	0.382982	2.830000	663.660940	257.122391	24.209424
719.685673	0.474503	0.692349	0.839345	86.124604	0.011036	0.367304	120.035826	120.035826	120.035826	0.223116	0.403707	2.830000	660.291566	256.442181	24.518246
730.052407	0.486031	0.696254	0.849115	86.553689	0.011066	0.366401	119.204004	119.204004	119.204004	0.222657	0.425488	2.830000	656.857406	255.746467	24.829783
740.568469	0.497765	0.699984	0.858922	86.980762	0.011097	0.365475	118.361972	118.361972	118.361972	0.222180	0.448373	2.830000	653.358215	255.035043	25.144001
751.236010	0.509704	0.703529	0.868764	87.405765	0.011128	0.364526	117.509683	117.509683	117.509683	0.221682	0.472411	2.830000	649.793809	254.307710	25.460867
762.057212	0.521845	0.706879	0.878636	87.828638	0.011161	0.363554	116.647093	116.647093	116.647093	0.221165	0.497652	2.830000	646.164067	253.564276	25.780343
773.034288	0.534188	0.710023	0.888533	88.249319	0.011194	0.362558	115.774164	115.774164	115.774164	0.220627	0.524148	2.830000	642.468937	252.804558	26.102390
784.169484	0.546729	0.712952	0.898450	88.667746	0.011229	0.361538	114.890861	114.890861	114.890861	0.220067	0.551954	2.830000	638.708434	252.028383	26.426963
795.465078	0.559466	0.715653	0.908384	89.083852	0.011264	0.360493	113.997158	113.997158	113.997158	0.219484	0.581124	2.830000	634.882647	251.235585	26.754017
806.923378	0.572396	0.718116	0.918329	89.497571	0.011301	0.359424	113.093033	113.093033	113.093033	0.218878	0.611715	2.830000	630.991740	250.426011	27.083503
818.546731	0.585513	0.720330	0.928279	89.908835	0.011338	0.358330	112.178470	112.178470	112.178470	0.218248	0.643784	2.830000	627.035959	249.599519	27.415368
830.337512	0.598815	0.722283	0.938228	90.317574	0.011377	0.357210	111.253461	111.253461	111.253461	0.217593	0.677392	2.830000	623.015628	248.755979	27.749555
842.298134	0.612296	0.723964	0.948171	90.723717	0.011416	0.356064	110.318004	110.318004	110.318004	0.216912	0.712597	2.830000	618.931158	247.895274	28.086008
854.431043	0.625949	0.725360	0.958102	91.127189	0.011457	0.354892	109.372107	109.372107	109.372107	0.216204	0.749463	2.830000	614.783045	247.017302	28.424663
866.738721	0.639770	0.726460	0.968013	91.527916	0.011498	0.353693	108.415783	108.415783	108.415783	0.215468	0.788050	2.830000	610.571875	246.121974	28.765455
879.223685	0.653750	0.727252	0.977898	91.925821	0.011541	0.352468	107.449056	107.449056	107.449056	0.214703	0.828423	2.830000	606.298327	245.209219	29.108317
891.888489	0.667882	0.727724	0.987750	92.320825	0.011585	0.351215	106.471957	106.471957	106.471957	0.213909	0.870646	2.830000	601.963171	244.278981	29.453176
904.735724	0.682158	0.727864	0.997560	92.712848	0.011630	0.349936	105.484528	105.484528	105.484528	0.213084	0.914782	2.830000	597.567274	243.331222	29.799959
917.768017	0.696568	0.727660	1.007321	93.101808	0.011677	0.348629	104.486819	104.486819	104.486819	0.212227	0.960897	2.830000	593.111598	242.365923	30.148588
930.988035	0.711103	0.727100	1.017025	93.487621	0.011724	0.347294	103.478894	103.478894	103.478894	0.211338	1.009056	2.830000	588.597202	241.383082	30.498983
944.398480	0.725750	0.726171	1.026664	93.870200	0.011773	0.345931	102.460825	102.460825	102.460825	0.210415	1.059324	2.830000	584.025245	240.382721	30.851060
958.002097	0.740500	0.724863	1.036227	94.249459	0.011823	0.344540	101.432697	101.432697	101.432697	0.209457	1.111766	2.830000	579.396981	239.364877	31.204734
971.801667	0.755338	0.723163	1.045706	94.625308	0.011874	0.343121	100.394607	100.394607	100.394607	0.208463	1.166444	2.830000	574.713766	238.329614	31.559916
985.800014	0.770252	0.721060	1.055091	94.997657	0.011927	0.341674	99.346663	99.346663	99.346663	0.207433	1.223424	2.830000	569.977050	237.277014	31.916515
1000.000000	0.785227	0.718544	1.064372	95.366412	0.011981	0.340198	98.288990	98.288990	98.288990	0.206364	1.282765	2.830000	565.188380	236.207184	32.274438
1014.404530	0.800248	0.715603	1.073538	95.731479	0.012036	0.338694	97.221724	97.221724	97.221724	0.205256	1.344530	2.830000	560.349399	235.120253	32.633590
1029.016551	0.815298	0.712227	1.082580	96.092763	0.012093	0.337162	96.145016	96.145016	96.145016	0.204109	1.408776	2.830000	555.461843	234.016373	32.993874
1043.839051	0.830361	0.708407	1.091485	96.450165	0.012151	0.335601	95.059034	95.059034	95.059034	0.202919	1.475560	2.830000	550.527535	232.895721	33.355192
1058.875063	0.845417	0.704133	1.100242	96.803586	0.012211	0.334012	93.963961	93.963961	93.963961	0.201688	1.544935	2.830000	545.548387	231.758499	33.717443
1074.127661	0.860447	0.699396	1.108839	97.152925	0.012272	0.332395	92.859995	92.859995	92.859995	0.200413	1.616951	2.830000	540.526394	230.604932	34.080527
1089.599965	0.875432	0.694190	1.117265	97.498081	0.012335	0.330750	91.747353	91.747353	91.747353	0.199093	1.691656	2.830000	535.463628	229.435269	34.444342
1105.295141	0.890350	0.688507	1.125506	97.838948	0.012399	0.329077	90.626270	90.626270	90.626270	0.197727	1.769091	2.830000	530.362238	228.249786	34.808787
1121.216399	0.905179	0.682340	1.133550	98.175423	0.012464	0.327377	89.497001	89.497001	89.497001	0.196315	1.849296	2.830000	525.224437	227.048780	35.173759
1137.366994	0.919895	0.675685	1.141384	98.507398	0.012531	0.325649	88.359817	88.359817	88.359817	0.194854	1.932303	2.830000	520.052503	225.832573	35.539157
1153.750232	0.934476	0.668538	1.148994	98.834766	0.012600	0.323894	87.215012	87.215012	87.215012	0.193344	2.018141	2.830000	514.848768	224.601513	35.904880
1170.369462	0.948895	0.660896	1.156367	99.157417	0.012670	0.322113	86.062901	86.062901	86.062901	0.191784	2.106830	2.830000	509.615614	223.355966	36.270829
1187.228084	0.963127	0.652757	1.163488	99.475243	0.012742	0.320305	84.903819	84.903819	84.903819	0.190172	2.198388	2.830000	504.355462	222.096325	36.636906
1204.329547	0.977146	0.644121	1.170345	99.788132	0.012816	0.318471	83.738127	83.738127	83.738127	0.188508	2.292820	2.830000	499.070766	220.822999	37.003016
1221.677349	0.990924	0.634990	1.176921	100.095972	0.012891	0.316613	82.566205	82.566205	82.566205	0.186790	2.390130	2.830000	493.764005	219.536422	37.369064
1239.275037	1.004433	0.625367	1.183203	100.398653	0.012968	0.314729	81.388462	81.388462	81.388462	0.185016	2.490309	2.830000	488.437671	218.237042	37.734961
1257.126212	1.017646	0.615255	1.189177	100.696060	0.013046	0.312821	80.205330	80.205330	80.205330	0.183187	2.593342	2.830000	483.094264	216.925328	38.100621
1275.234525	1.030532	0.604661	1.194827	100.988081	0.013126	0.310890	79.017267	79.017267	79.017267	0.181301	2.699204	2.830000	477.736278	215.601763	38.465961
1293.603680	1.043063	0.593594	1.200140	101.274603	0.013208	0.308936	77.824759	77.824759	77.824759	0.179356	2.807863	2.830000	472.366194	214.266843	38.830902
1312.237433	1.055209	0.582064	1.205099	101.555512	0.013291	0.306960	76.628320	76.628320	76.628320	0.177351	2.919275	2.830000	466.986471	212.921077	39.195371
1331.139597	1.066940	0.570082	1.209692	101.830696	0.013377	0.304962	75.428493	75.428493	75.428493	0.175286	3.033388	2.830000	461.599532	211.564984	39.559300
1350.314038	1.078227	0.557664	1.213904	102.100043	0.013463	0.302944	74.225853	74.225853	74.225853	0.173159	3.150139	2.830000	456.207758	210.199091	39.922628
1369.764677	1.089040	0.544825	1.217720	102.363441	0.013552	0.300906	73.021004	73.021004	73.021004	0.170969	3.269455	2.830000	450.813478	208.823929	40.285298
1389.495494	1.099349	0.531584	1.221126	102.620781	0.013642	0.298848	71.814584	71.814584	71.814584	0.168714	3.391254	2.830000	445.418956	207.440032	40.647261
1409.510524	1.109126	0.517962	1.224110	102.871952	0.013735	0.296773	70.607265	70.607265	70.607265	0.166395	3.515441	2.830000	440.026386	206.047936	41.008475
1429.813862	1.118342	0.503983	1.226657	103.116849	0.013829	0.294681	69.399753	69.399753	69.399753	0.164008	3.641914	2.830000	434.637880	204.648172	41.368903
1450.409659	1.126971	0.489672	1.228756	103.355367	0.013924	0.292572	68.192792	68.192792	68.192792	0.161554	3.770560	2.830000	429.255462	203.241268	41.728519
1471.302129	1.134985	0.475057	1.230395	103.587403	0.014022	0.290449	66.987162	66.987162	66.987162	0.159031	3.901256	2.830000	423.881060	201.827742	42.087302
1492.495545	1.142360	0.460169	1.231561	103.812859	0.014121	0.288311	65.783685	65.783685	65.783685	0.156438	4.033872	2.830000	418.516497	200.408102	42.445239
1513.994242	1.149072	0.445040	1.232245	104.031641	0.014222	0.286159	64.583221	64.583221	64.583221	0.153773	4.168268	2.830000	413.163487	198.982844	42.802327
1535.802619	1.155098	0.429706	1.232436	104.243657	0.014325	0.283996	63.386674	63.386674	63.386674	0.151035	4.304297	2.830000	407.823629	197.552446	43.158568
1557.925134	1.160420	0.414203	1.232128	104.448822	0.014430	0.281821	62.194991	62.194991	62.194991	0.148223	4.441804	2.830000	402.498405	196.117366	43.513973
1580.366314	1.165018	0.398572	1.231311	104.647056	0.014537	0.279636	61.009166	61.009166	61.009166	0.145335	4.580632	2.830000	397.189171	194.678041	43.868560
1603.130749	1.168877	0.382853	1.229979	104.838288	0.014645	0.277442	59.830240	59.830240	59.830240	0.142371	4.720615	2.830000	391.897163	193.234885	44.222356
1626.223094	1.171984	0.367090	1.228129	105.022451	0.014756	0.275240	58.659302	58.659302	58.659302	0.139328	4.861588	2.830000	386.623489	191.788282	44.575393
1649.648074	1.174328	0.351329	1.225756	105.199490	0.014868	0.273031	57.497495	57.497495	57.497495	0.136205	5.003381	2.830000	381.369135	190.338589	44.927710
1673.410480	1.175901	0.335616	1.222858	105.369358	0.014983	0.270816	56.346011	56.346011	56.346011	0.133001	5.145828	2.830000	376.134962	188.886130	45.279351
1697.515172	1.176701	0.319999	1.219436	105.532020	0.015099	0.268596	55.206099	55.206099	55.206099	0.129715	5.288763	2.830000	370.921713	187.431199	45.630368
1721.967081	1.176725	0.304530	1.215491	105.687454	0.015217	0.266372	54.079063	54.079063	54.079063	0.126345	5.432024	2.830000	365.730017	185.974051	45.980814
1746.771208	1.175976	0.289257	1.211028	105.835652	0.015338	0.264144	52.966265	52.966265	52.966265	0.122890	5.575456	2.830000	360.560393	184.514907	46.330747
1771.932627	1.174461	0.274234	1.206053	105.976623	0.015460	0.261914	51.869126	51.869126	51.869126	0.119349	5.718912	2.830000	355.413258	183.053950	46.680228
1797.456484	1.172190	0.259511	1.200573	106.110392	0.015584	0.259684	50.789125	50.789125	50.789125	0.115720	5.862258	2.830000	350.288938	181.591326	47.029320
1823.348001	1.169178	0.245140	1.194601	106.237008	0.015711	0.257452	49.727802	49.727802	49.727802	0.112003	6.005372	2.830000	345.187675	180.127141	47.378083
1849.612473	1.165443	0.231175	1.188149	106.356539	0.015840	0.255221	48.686756	48.686756	48.686756	0.108197	6.148151	2.830000	340.109642	178.661465	47.726580
1876.255272	1.161007	0.217666	1.181235	106.469081	0.015971	0.252991	47.667644	47.667644	47.667644	0.104302	6.290509	2.830000	335.054952	177.194326	48.074869
1903.281848	1.155899	0.204665	1.173878	106.574758	0.016105	0.250763	46.672182	46.672182	46.672182	0.100319	6.432385	2.830000	330.023676	175.725719	48.423005
1930.697729	1.150149	0.192220	1.166101	106.673725	0.016241	0.248537	45.702135	45.702135	45.702135	0.096247	6.573745	2.830000	325.015854	174.255600	48.771036
1958.508523	1.143793	0.180381	1.157929	106.766171	0.016379	0.246315	44.759320	44.759320	44.759320	0.092088	6.714582	2.830000	320.031515	172.783893	49.119005
1986.719919	1.136872	0.169193	1.149393	106.852325	0.016520	0.244096	43.845592	43.845592	43.845592	0.087845	6.854924	2.830000	315.070695	171.310490	49.466943
2015.337686	1.129430	0.158701	1.140525	106.932457	0.016663	0.241882	42.962839	42.962839	42.962839	0.083521	6.994834	2.830000	310.133449	169.835252	49.814874
2044.367679	1.121516	0.148945	1.131363	107.006885	0.016809	0.239672	42.112970	42.112970	42.112970	0.079119	7.134418	2.830000	305.219878	168.358017	50.162804
2073.815835	1.113184	0.139963	1.121948	107.075974	0.016958	0.237467	41.297898	41.297898	41.297898	0.074648	7.273821	2.830000	300.330143	166.878598	50.510730
2103.688178	1.104490	0.131789	1.112325	107.140147	0.017110	0.235267	40.519521	40.519521	40.519521	0.070113	7.413241	2.830000	295.464487	165.396793	50.858628
2133.990819	1.095496	0.124455	1.102543	107.199881	0.017265	0.233074	39.779698	39.779698	39.779698	0.065526	7.552922	2.830000	290.623253	163.912387	51.206457
2164.729954	1.086266	0.117985	1.092655	107.255718	0.017423	0.230886	39.080224	39.080224	39.080224	0.060897	7.693165	2.830000	285.806909	162.425156	51.554157
2195.911873	1.076868	0.112400	1.082718	107.308265	0.017585	0.228704	38.422789	38.422789	38.422789	0.056243	7.834327	2.830000	281.016060	160.934876	51.901643
2227.542952	1.067373	0.107716	1.072795	107.358195	0.017749	0.226528	37.808947	37.808947	37.808947	0.051581	7.976826	2.830000	276.251474	159.441329	52.248807
2259.629662	1.057855	0.103943	1.062950	107.406253	0.017918	0.224358	37.240061	37.240061	37.240061	0.046932	8.121143	2.830000	271.514095	157.944309	52.595516
2292.178566	1.048390	0.101083	1.053252	107.453250	0.018090	0.222194	36.717256	36.717256	36.717256	0.042321	8.267823	2.830000	266.805061	156.443629	52.941609
2325.196322	1.039055	0.099134	1.043773	107.500071	0.018265	0.220036	36.241361	36.241361	36.241361	0.037777	8.417479	2.830000	262.125722	154.939131	53.286896
2358.689683	1.029929	0.098086	1.034589	107.547663	0.018445	0.217885	35.812840	35.812840	35.812840	0.033332	8.570789	2.830000	257.477646	153.430695	53.631158
2392.665500	1.021092	0.097921	1.025776	107.597034	0.018628	0.215739	35.431731	35.431731	35.431731	0.029021	8.728498	2.830000	252.862636	151.918243	53.974145
2427.130723	1.012623	0.098614	1.017414	107.649246	0.018816	0.213598	35.097571	35.097571	35.097571	0.024885	8.891419	2.830000	248.282731	150.401753	54.315576
2462.092401	1.004603	0.100131	1.009581	107.705398	0.019008	0.211463	34.809328	34.809328	34.809328	0.020967	9.060423	2.830000	243.740213	148.881268	54.655140
2497.557686	0.997107	0.102431	1.002354	107.766619	0.019205	0.209333	34.565340	34.565340	34.565340	0.017310	9.236443	2.830000	239.237603	147.356899	54.992495
2533.533832	0.990211	0.105465	0.995812	107.834041	0.019406	0.207208	34.363252	34.363252	34.363252	0.013961	9.420462	2.830000	234.777656	145.828844	55.327270
2570.028197	0.983987	0.109173	0.990025	107.908784	0.019612	0.205087	34.199975	34.199975	34.199975	0.010965	9.613506	2.830000	230.363350	144.297386	55.659067
2607.048246	0.978503	0.113489	0.985062	107.991926	0.019823	0.202971	34.071660	34.071660	34.071660	0.008367	9.816635	2.830000	225.997868	142.762909	55.987462
2644.601552	0.973820	0.118338	0.980983	108.084479	0.020039	0.200858	33.973695	33.973695	33.973695	0.006207	10.030928	2.830000	221.684575	141.225902	56.312011
2682.695795	0.969993	0.123635	0.977841	108.187356	0.020260	0.198750	33.900726	33.900726	33.900726	0.004520	10.257469	2.830000	217.426984	139.686964	56.632254
2721.338768	0.967072	0.129289	0.975676	108.301344	0.020485	0.196645	33.846720	33.846720	33.846720	0.003332	10.497326	2.830000	213.228727	138.146810	56.947716
2760.538375	0.965095	0.135202	0.974519	108.427069	0.020716	0.194544	33.805043	33.805043	33.805043	0.002663	10.751532	2.830000	209.093500	136.606276	57.257918
2800.302634	0.964090	0.141267	0.974385	108.564976	0.020953	0.192446	33.768590	33.768590	33.768590	0.002518	11.021059	2.830000	205.025020	135.066314	57.562385
2840.639679	0.964074	0.147373	0.975274	108.715297	0.021194	0.190352	33.729927	33.729927	33.729927	0.002892	11.306794	2.830000	201.026962	133.527997	57.860647
2881.557759	0.965053	0.153406	0.977170	108.878038	0.021441	0.188261	33.681471	33.681471	33.681471	0.003767	11.609506	2.830000	197.102897	131.992509	58.152258
2923.065245	0.967018	0.159244	0.980042	109.052968	0.021692	0.186174	33.615678	33.615678	33.615678	0.005111	11.929824	2.830000	193.256220	130.461141	58.436800
2965.170628	0.969943	0.164770	0.983838	109.239609	0.021949	0.184090	33.525243	33.525243	33.525243	0.006884	12.268198	2.830000	189.490080	128.935279	58.713893
3007.882518	0.973789	0.169861	0.988493	109.437243	0.022211	0.182011	33.403298	33.403298	33.403298	0.009030	12.624875	2.830000	185.807299	127.416388	58.983212
3051.209653	0.978501	0.174400	0.993922	109.644923	0.022477	0.179936	33.243597	33.243597	33.243597	0.011488	12.999869	2.830000	182.210298	125.905996	59.244493
3095.160895	0.984007	0.178276	1.000026	109.861490	0.022748	0.177867	33.040684	33.040684	33.040684	0.014189	13.392937	2.830000	178.701020	124.405669	59.497548
3139.745234	0.990216	0.181382	1.006691	110.085598	0.023024	0.175804	32.790028	32.790028	32.790028	0.017060	13.803562	2.830000	175.280859	122.916987	59.742272
3184.971790	0.997025	0.183624	1.013793	110.315743	0.023303	0.173747	32.488134	32.488134	32.488134	0.020027	14.230935	2.830000	171.950596	121.441516	59.978659
3230.849813	1.004312	0.184919	1.021195	110.550296	0.023587	0.171698	32.132615	32.132615	32.132615	0.023015	14.673952	2.830000	168.710340	119.980776	60.206802
3277.388687	1.011945	0.185201	1.028753	110.787537	0.023875	0.169657	31.722231	31.722231	31.722231	0.025953	15.131219	2.830000	165.559488	118.536205	60.426907
3324.597932	1.019778	0.184422	1.036320	111.025695	0.024165	0.167626	31.256901	31.256901	31.256901	0.028775	15.601067	2.830000	162.496696	117.109128	60.639293
3372.487204	1.027656	0.182554	1.043745	111.262979	0.024460	0.165606	30.737675	30.737675	30.737675	0.031419	16.081574	2.830000	159.519868	115.700718	60.844392
3421.066299	1.035418	0.179592	1.050878	111.497614	0.024757	0.163598	30.166700	30.166700	30.166700	0.033830	16.570607	2.830000	156.626166	114.311968	61.042746
3470.345152	1.042901	0.175556	1.057574	111.727878	0.025057	0.161603	29.547148	29.547148	29.547148	0.035961	17.065863	2.830000	153.812039	112.943653	61.235004
3520.333844	1.049942	0.170491	1.063694	111.952126	0.025359	0.159622	28.883148	28.883148	28.883148	0.037773	17.564931	2.830000	151.073275	111.596308	61.421904
3571.042600	1.056385	0.164466	1.069111	112.168821	0.025664	0.157657	28.179690	28.179690	28.179690	0.039232	18.065355	2.830000	148.405080	110.270203	61.604265
3622.481792	1.062083	0.157580	1.073709	112.376562	0.025972	0.155710	27.442541	27.442541	27.442541	0.040315	18.564704	2.830000	145.802165	108.965327	61.782964
3674.661941	1.066903	0.149950	1.077389	112.574105	0.026281	0.153780	26.678139	26.678139	26.678139	0.041002	19.060651	2.830000	143.258867	107.681379	61.958916
3727.593720	1.070731	0.141719	1.080069	112.760383	0.026593	0.151870	25.893499	25.893499	25.893499	0.041283	19.551045	2.830000	140.769281	106.417768	62.133046
3781.287957	1.073477	0.133048	1.081691	112.934532	0.026908	0.149979	25.096113	25.096113	25.096113	0.041152	20.033989	2.830000	138.327400	105.173620	62.306264
3835.755635	1.075075	0.124114	1.082216	113.095902	0.027225	0.148110	24.293843	24.293843	24.293843	0.040611	20.507909	2.830000	135.927277	103.947792	62.479435
3891.007893	1.075489	0.115104	1.081631	113.244082	0.027546	0.146262	23.494820	23.494820	23.494820	0.039666	20.971622	2.830000	133.563184	102.738901	62.653348
3947.056035	1.074715	0.106212	1.079951	113.378913	0.027869	0.144436	22.707332	22.707332	22.707332	0.038330	21.424394	2.830000	131.229775	101.545355	62.828687
4003.911523	1.072780	0.097632	1.077214	113.500506	0.028197	0.142633	21.939701	21.939701	21.939701	0.036622	21.865986	2.830000	128.922245	100.365395	63.006005
4061.585988	1.069745	0.089555	1.073487	113.609257	0.028529	0.140852	21.200156	21.200156	21.200156	0.034565	22.296698	2.830000	126.636482	99.197141	63.185691
4120.091227	1.065702	0.082161	1.068864	113.705862	0.028866	0.139093	20.496680	20.496680	20.496680	0.032192	22.717389	2.830000	124.369204	98.038650	63.367957
4179.439206	1.060775	0.075614	1.063467	113.791326	0.029209	0.137357	19.836835	19.836835	19.836835	0.029540	23.129494	2.830000	122.118082	96.887970	63.552808
4239.642065	1.055117	0.070055	1.057440	113.866971	0.029558	0.135642	19.227563	19.227563	19.227563	0.026657	23.535023	2.830000	119.881838	95.743208	63.740034
4300.712118	1.048904	0.065603	1.050954	113.934440	0.029915	0.133948	18.674956	18.674956	18.674956	0.023597	23.936545	2.830000	117.660312	94.602589	63.929200
4362.661857	1.042334	0.062341	1.044197	113.995683	0.030279	0.132275	18.183990	18.183990	18.183990	0.020427	24.337151	2.830000	115.454512	93.464524	64.119641
4425.503952	1.035620	0.060322	1.037376	114.052939	0.030652	0.130621	17.758231	17.758231	17.758231	0.017221	24.740398	2.830000	113.266607	92.327676	64.310467
4489.251258	1.028985	0.059557	1.030707	114.108698	0.031034	0.128985	17.399529	17.399529	17.399529	0.014063	25.150233	2.830000	111.099902	91.191018	64.500577
4553.916814	1.022655	0.060019	1.024415	114.165644	0.031426	0.127367	17.107704	17.107704	17.107704	0.011047	25.570883	2.830000	108.958751	90.053893	64.688679
4619.513847	1.016853	0.061638	1.018720	114.226573	0.031828	0.125765	16.880261	16.880261	16.880261	0.008271	26.006725	2.830000	106.848436	88.916060	64.873320
4686.055775	1.011789	0.064302	1.013830	114.294294	0.032241	0.124177	16.712169	16.712169	16.712169	0.005834	26.462118	2.830000	104.774989	87.777735	65.052931
4753.556208	1.007654	0.067859	1.009936	114.371497	0.032664	0.122604	16.595751	16.595751	16.595751	0.003833	26.941211	2.830000	102.744970	86.639616	65.225877
4822.028953	1.004610	0.072116	1.007196	114.460613	0.033098	0.121043	16.520718	16.520718	16.520718	0.002352	27.447722	2.830000	100.765190	85.502889	65.390519
4891.488015	1.002784	0.076849	1.005724	114.563659	0.033543	0.119495	16.474404	16.474404	16.474404	0.001457	27.984706	2.830000	98.842405	84.369217	65.545292
4961.947603	1.002256	0.081805	1.005589	114.682090	0.033998	0.117957	16.442219	16.442219	16.442219	0.001188	28.554310	2.830000	96.982961	83.240703	65.688782
5033.422128	1.003055	0.086712	1.006796	114.816668	0.034462	0.116431	16.408311	16.408311	16.408311	0.001551	29.157548	2.830000	95.192436	82.119824	65.819814
5105.926210	1.005153	0.091289	1.009290	114.967370	0.034934	0.114915	16.356415	16.356415	16.356415	0.002519	29.794109	2.830000	93.475263	81.009346	65.937538
5179.474679	1.008460	0.095259	1.012949	115.133331	0.035414	0.113409	16.270832	16.270832	16.270832	0.004024	30.462227	2.830000	91.834391	79.912196	66.041514
5254.082580	1.012823	0.098366	1.017588	115.312863	0.035899	0.111915	16.137420	16.137420	16.137420	0.005969	31.158630	2.830000	90.270986	78.831329	66.131775
5329.765172	1.018031	0.100385	1.022968	115.503520	0.036390	0.110431	15.944541	15.944541	15.944541	0.008225	31.878605	2.830000	88.784204	77.769556	66.208880
5406.537936	1.023819	0.101140	1.028802	115.702220	0.036883	0.108960	15.683836	15.683836	15.683836	0.010650	32.616165	2.830000	87.371071	76.729381	66.273929
5484.416576	1.029881	0.100518	1.034775	115.905419	0.037378	0.107502	15.350781	15.350781	15.350781	0.013093	33.364343	2.830000	86.026486	75.712822	66.328550
5563.417021	1.035886	0.098481	1.040557	116.109302	0.037874	0.106059	14.944972	14.944972	14.944972	0.015406	34.115583	2.830000	84.743366	74.721264	66.374838
5643.555431	1.041493	0.095073	1.045823	116.310004	0.038370	0.104631	14.470146	14.470146	14.470146	0.017452	34.862201	2.830000	83.512929	73.755328	66.415263
5724.848197	1.046377	0.090419	1.050276	116.503817	0.038866	0.103220	13.933944	13.933944	13.933944	0.019116	35.596892	2.830000	82.325123	72.814791	66.452525
5807.311946	1.050247	0.084727	1.053659	116.687390	0.039361	0.101827	13.347468	13.347468	13.347468	0.020307	36.313221	2.830000	81.169159	71.898556	66.489399
5890.963548	1.052870	0.078274	1.055776	116.857911	0.039857	0.100453	12.724677	12.724677	12.724677	0.020960	37.006073	2.830000	80.034142	71.004682	66.528537
5975.820111	1.054087	0.071394	1.056502	117.013255	0.040353	0.099099	12.081668	12.081668	12.081668	0.021041	37.672023	2.830000	78.909730	70.130477	66.572289
6061.898993	1.053828	0.064452	1.055797	117.152106	0.040853	0.097766	11.435880	11.435880	11.435880	0.020544	38.309600	2.830000	77.786802	69.272642	66.622512
6149.217802	1.052117	0.057827	1.053705	117.274054	0.041358	0.096454	10.805237	10.805237	10.805237	0.019493	38.919428	2.830000	76.658066	68.427469	66.680418
6237.794396	1.049078	0.051882	1.050360	117.379650	0.041869	0.095162	10.207256	10.207256	10.207256	0.017938	39.504251	2.830000	75.518582	67.591073	66.746447
6327.646895	1.044926	0.046938	1.045980	117.470433	0.042391	0.093891	9.658107	9.658107	9.658107	0.015957	40.068829	2.830000	74.366149	66.759646	66.820197
6418.793677	1.039955	0.043257	1.040855	117.548908	0.042924	0.092639	9.171634	9.171634	9.171634	0.013656	40.619714	2.830000	73.201527	65.929717	66.900389
6511.253386	1.034523	0.041014	1.035336	117.618480	0.043473	0.091406	8.758342	8.758342	8.758342	0.011163	41.164900	2.830000	72.028477	65.098407	66.984907
6605.044933	1.029026	0.040286	1.029815	117.683313	0.044037	0.090190	8.424392	8.424392	8.424392	0.008631	41.713357	2.830000	70.853592	64.263660	67.070888
6700.187504	1.023876	0.041045	1.024698	117.748115	0.044620	0.088989	8.170678	8.170678	8.170678	0.006226	42.274432	2.830000	69.685906	63.424431	67.154877
6796.700558	1.019467	0.043146	1.020380	117.817839	0.045222	0.087803	7.992117	7.992117	7.992117	0.004123	42.857141	2.830000	68.536296	62.580827	67.233041
6894.603838	1.016151	0.046340	1.017207	117.897295	0.045842	0.086629	7.877314	7.877314	7.877314	0.002487	43.469366	2.830000	67.416670	61.734164	67.301451
6993.917368	1.014200	0.050281	1.015446	117.990707	0.046480	0.085467	7.808824	7.808824	7.808824	0.001458	44.117022	2.830000	66.338985	60.886945	67.356399
7094.661463	1.013786	0.054546	1.015253	118.101241	0.047133	0.084314	7.764141	7.764141	7.764141	0.001128	44.803261	2.830000	65.314151	60.042719	67.394760
7196.856730	1.014951	0.058669	1.016646	118.230591	0.047799	0.083172	7.717499	7.717499	7.717499	0.001526	45.527847	2.830000	64.350896	59.205843	67.414356
7300.524071	1.017595	0.062179	1.019492	118.378680	0.048475	0.082038	7.642369	7.642369	7.642369	0.002603	46.286827	2.830000	63.454719	58.381112	67.414272
7405.684692	1.021470	0.064640	1.023513	118.543548	0.049155	0.080915	7.514379	7.514379	7.514379	0.004233	47.072611	2.830000	62.627051	57.573313	67.395100
7512.360102	1.026199	0.065707	1.028300	118.721473	0.049836	0.079801	7.314209	7.314209	7.314209	0.006229	47.874535	2.830000	61.864771	56.786706	67.359035
7620.572122	1.031296	0.065165	1.033353	118.907319	0.050514	0.078698	7.029997	7.029997	7.029997	0.008359	48.679901	2.830000	61.160189	56.024521	67.309785
7730.342884	1.036222	0.062965	1.038133	119.095061	0.051186	0.077608	6.658866	6.658866	6.658866	0.010381	49.475365	2.830000	60.501575	55.288516	67.252278
7841.694843	1.040436	0.059243	1.042121	119.278437	0.051852	0.076531	6.207353	6.207353	6.207353	0.012069	50.248491	2.830000	59.874215	54.578682	67.192169
7954.650775	1.043466	0.054312	1.044878	119.451607	0.052511	0.075470	5.690722	5.690722	5.690722	0.013239	50.989241	2.830000	59.261920	53.893150	67.135204
8069.233784	1.044965	0.048635	1.046097	119.609783	0.053167	0.074425	5.131329	5.131329	5.131329	0.013768	51.691177	2.830000	58.648804	53.228326	67.086512
8185.467307	1.044765	0.042770	1.045640	119.749733	0.053824	0.073398	4.556295	4.556295	4.556295	0.013600	52.352223	2.830000	58.021126	52.579252	67.049931
8303.375120	1.042896	0.037310	1.043563	119.870155	0.054486	0.072388	3.994740	3.994740	3.994740	0.012753	52.974925	2.830000	57.368951	51.940150	67.027463
8422.981339	1.039593	0.032804	1.040110	119.971869	0.055160	0.071395	3.474810	3.474810	3.474810	0.011312	53.566200	2.830000	56.687426	51.305093	67.018930
8544.310429	1.035271	0.029694	1.035697	120.057838	0.055853	0.070419	3.020664	3.020664	3.020664	0.009429	54.136614	2.830000	55.977505	50.668708	67.021870
8667.387209	1.030479	0.028251	1.030867	120.132970	0.056570	0.069459	2.649588	2.649588	2.649588	0.007306	54.699244	2.830000	55.246007	50.026852	67.031712
8792.236851	1.025835	0.028541	1.026232	120.203698	0.057314	0.068513	2.369413	2.369413	2.369413	0.005189	55.268197	2.830000	54.504978	49.377180	67.042213
8918.884894	1.021950	0.030406	1.022402	120.277309	0.058088	0.067579	2.176608	2.176608	2.176608	0.003339	55.856825	2.830000	53.770327	48.719534	67.046142
9047.357242	1.019351	0.033472	1.019901	120.361033	0.058890	0.066655	2.055500	2.055500	2.055500	0.002005	56.475812	2.830000	53.059855	48.056083	67.036187
9177.680175	1.018405	0.037184	1.019084	120.460981	0.059716	0.065741	1.979187	1.979187	1.979187	0.001379	57.131333	2.830000	52.390791	47.391174	67.005989
9309.880348	1.019251	0.040875	1.020070	120.581074	0.060560	0.064835	1.912569	1.912569	1.912569	0.001555	57.823639	2.830000	51.777139	46.730839	66.951221
9443.984802	1.021759	0.043851	1.022700	120.722208	0.061412	0.063936	1.817444	1.817444	1.817444	0.002501	58.546473	2.830000	51.227205	46.081974	66.870506
9580.020968	1.025533	0.045503	1.026542	120.881874	0.062264	0.063046	1.658976	1.658976	1.658976	0.004046	59.287642	2.830000	50.741773	45.451262	66.765985
9718.016671	1.029944	0.045418	1.030945	121.054411	0.063108	0.062164	1.412214	1.412214	1.412214	0.005909	60.030845	2.830000	50.313398	44.843996	66.643307
9858.000137	1.034232	0.043467	1.035145	121.231885	0.063936	0.061292	1.067071	1.067071	1.067071	0.007751	60.758502	2.830000	49.927140	44.263029	66.510928
10000.000000	1.037632	0.039853	1.038397	121.405440	0.064748	0.060431	0.630540	0.630540	0.630540	0.009240	61.455001	2.830000	49.562792	43.708097	66.378741
10144.045304	1.039522	0.035089	1.040114	121.566837	0.065546	0.059584	0.125643	0.125643	0.125643	0.010112	62.109611	2.830000	49.198286	43.175713	66.256266
10290.165513	1.039548	0.029916	1.039979	121.709891	0.066339	0.058752	-0.412548	-0.412548	-0.412548	0.010217	62.718445	2.830000	48.813658	42.659689	66.150778
10438.390514	1.037708	0.025163	1.038013	121.831570	0.067138	0.057934	-0.942937	-0.942937	-0.942937	0.009539	63.285102	2.830000	48.394798	42.152225	66.065777
10588.750628	1.034356	0.021589	1.034581	121.932588	0.067955	0.057130	-1.425411	-1.425411	-1.425411	0.008196	63.819986	2.830000	47.936222	41.645326	66.000129
10741.276608	1.030143	0.019731	1.030332	122.017443	0.068802	0.056341	-1.827888	-1.827888	-1.827888	0.006421	64.338453	2.830000	47.442344	41.132316	65.948056
10895.999653	1.025899	0.019798	1.026090	122.093814	0.069689	0.055564	-2.132550	-2.132550	-2.132550	0.004534	64.858064	2.830000	46.926943	40.609157	65.899995
11052.951411	1.022475	0.021617	1.022703	122.171337	0.070617	0.054798	-2.340353	-2.340353	-2.340353	0.002897	65.395257	2.830000	46.410805	40.075354	65.844246
11212.163986	1.020574	0.024646	1.020872	122.259803	0.071584	0.054041	-2.472633	-2.472633	-2.472633	0.001843	65.961853	2.830000	45.917786	39.534243	65.769220
11373.669943	1.020596	0.028067	1.020982	122.367025	0.072578	0.053290	-2.568561	-2.568561	-2.568561	0.001604	66.562076	2.830000	45.469815	38.992515	65.665989
11537.502317	1.022524	0.030943	1.022992	122.496828	0.073585	0.052547	-2.677735	-2.677735	-2.677735	0.002234	67.190943	2.830000	45.081751	38.458936	65.530634
11703.694619	1.025893	0.032425	1.026405	122.647790	0.074587	0.051810	-2.848722	-2.848722	-2.848722	0.003572	67.834848	2.830000	44.757298	37.942395	65.365767
11872.280844	1.029864	0.031968	1.030360	122.813266	0.075568	0.051080	-3.116341	-3.116341	-3.116341	0.005267	68.474634	2.830000	44.487269	37.449665	65.180544
12043.295474	1.033409	0.029506	1.033831	122.982877	0.076521	0.050359	-3.491713	-3.491713	-3.491713	0.006871	69.090530	2.830000	44.251103	36.983485	64.988827
12216.773490	1.035583	0.025499	1.035897	123.145097	0.077446	0.049649	-3.958587	-3.958587	-3.958587	0.007964	69.667465	2.830000	44.021642	36.541593	64.805724
12392.750375	1.035785	0.020836	1.035995	123.290207	0.078356	0.048950	-4.477218	-4.477218	-4.477218	0.008264	70.199081	2.830000	43.772064	36.117139	64.643456
12571.262124	1.033949	0.016600	1.034082	123.412803	0.079271	0.048264	-4.994515	-4.994515	-4.994515	0.007698	70.689286	2.830000	43.483047	35.700408	64.507801
12752.345251	1.030569	0.013767	1.030661	123.513263	0.080212	0.047591	-5.457571	-5.457571	-5.457571	0.006415	71.151081	2.830000	43.148138	35.281399	64.396215
12936.036796	1.026577	0.012930	1.026659	123.597853	0.081199	0.046930	-5.827412	-5.827412	-5.827412	0.004746	71.603123	2.830000	42.775813	34.852539	64.298161
13122.374331	1.023091	0.014124	1.023189	123.677369	0.082241	0.046278	-6.090117	-6.090117	-6.090117	0.003140	72.064787	2.830000	42.387615	34.410856	64.197631
13311.395971	1.021103	0.016792	1.021241	123.764426	0.083336	0.045635	-6.262623	-6.262623	-6.262623	0.002052	72.550695	2.830000	42.012541	33.959020	64.077378
13503.140379	1.021182	0.019921	1.021376	123.869828	0.084465	0.044998	-6.390513	-6.390513	-6.390513	0.001811	73.066002	2.830000	41.678782	33.504869	63.924028
13697.646775	1.023270	0.022314	1.023513	123.998956	0.085604	0.044367	-6.536160	-6.536160	-6.536160	0.002491	73.604105	2.830000	41.404781	33.059284	63.732767
13894.954944	1.026646	0.022964	1.026903	124.149528	0.086723	0.043741	-6.758916	-6.758916	-6.758916	0.003857	74.148209	2.830000	41.192442	32.632781	63.509892
14095.105244	1.030114	0.021426	1.030337	124.311930	0.087802	0.043122	-7.093759	-7.093759	-7.093759	0.005419	74.676915	2.830000	41.025356	32.231794	63.271673
14298.138616	1.032402	0.018016	1.032559	124.472326	0.088837	0.042511	-7.537402	-7.537402	-7.537402	0.006614	75.171952	2.830000	40.873592	31.856106	63.039162
14504.096588	1.032636	0.013749	1.032727	124.617472	0.089845	0.041911	-8.048478	-8.048478	-8.048478	0.007017	75.624840	2.830000	40.703915	31.498642	62.830581
14713.021288	1.030692	0.009973	1.030741	124.739411	0.090857	0.041322	-8.561971	-8.561971	-8.561971	0.006490	76.039783	2.830000	40.491755	31.147893	62.654298
14924.955451	1.027267	0.007867	1.027297	124.838364	0.091907	0.040743	-9.012199	-9.012199	-9.012199	0.005224	76.431909	2.830000	40.230331	30.792079	62.505318
15139.942425	1.023620	0.007982	1.023651	124.922907	0.093020	0.040175	-9.356418	-9.356418	-9.356418	0.003675	76.821750	2.830000	39.933531	30.423500	62.366628
15358.026185	1.021115	0.010022	1.021164	125.007233	0.094203	0.039615	-9.591744	-9.591744	-9.591744	0.002419	77.227747	2.830000	39.631332	30.041550	62.215034
15579.251340	1.020690	0.012919	1.020772	125.106045	0.095436	0.039060	-9.759217	-9.759217	-9.759217	0.001947	77.658982	2.830000	39.358834	29.653270	62.029870
15803.663140	1.022457	0.015217	1.022570	125.228525	0.096683	0.038511	-9.930750	-9.930750	-9.930750	0.002455	78.110916	2.830000	39.142180	29.270915	61.801853
16031.307485	1.025582	0.015660	1.025701	125.373912	0.097900	0.037967	-10.180191	-10.180191	-10.180191	0.003713	78.566707	2.830000	38.986697	28.906977	61.538333
16262.230941	1.028582	0.013780	1.028674	125.531227	0.099060	0.037429	-10.549351	-10.549351	-10.549351	0.005134	79.004598	2.830000	38.873184	28.568482	61.261463
16496.480741	1.029981	0.010184	1.030032	125.683933	0.100165	0.036898	-11.026587	-11.026587	-11.026587	0.006051	79.408180	2.830000	38.765577	28.253385	60.998677
16734.104799	1.029037	0.006315	1.029057	125.817493	0.101248	0.036377	-11.550870	-11.550870	-11.550870	0.006038	79.774123	2.830000	38.627329	27.951236	60.769580
16975.151720	1.026137	0.003769	1.026144	125.926135	0.102358	0.035865	-12.039951	-12.039951	-12.039951	0.005109	80.113416	2.830000	38.438658	27.648031	60.576109
17219.670809	1.022629	0.003503	1.022635	126.015701	0.103538	0.035363	-12.428784	-12.428784	-12.428784	0.003702	80.445954	2.830000	38.206181	27.332863	60.401033
17467.712080	1.020174	0.005350	1.020188	126.101303	0.104802	0.034868	-12.701226	-12.701226	-12.701226	0.002493	80.791097	2.830000	37.960318	27.003261	60.215592
17719.326270	1.019927	0.008064	1.019959	126.200379	0.106125	0.034379	-12.901005	-12.901005	-12.901005	0.002087	81.158081	2.830000	37.741058	26.666720	59.993294
17974.564843	1.021907	0.009902	1.021955	126.323724	0.107452	0.033895	-13.113526	-13.113526	-13.113526	0.002695	81.540752	2.830000	37.577595	26.337315	59.724188
18233.480009	1.024898	0.009540	1.024943	126.469054	0.108728	0.033415	-13.421661	-13.421661	-13.421661	0.003969	81.920407	2.830000	37.471640	26.028292	59.422033
18496.124725	1.027053	0.006876	1.027076	126.621579	0.109927	0.032940	-13.857142	-13.857142	-13.857142	0.005158	82.276474	2.830000	37.394936	25.744322	59.118188
18762.552716	1.026964	0.003181	1.026969	126.762216	0.111075	0.032473	-14.379293	-14.379293	-14.379293	0.005560	82.598777	2.830000	37.304657	25.478357	58.843683
19032.818477	1.024567	0.000376	1.024567	126.878695	0.112232	0.032015	-14.897756	-14.897756	-14.897756	0.004944	82.893346	2.830000	37.168451	25.215627	58.610265
19306.977289	1.021209	-0.000152	1.021209	126.972843	0.113461	0.031566	-15.325742	-15.325742	-15.325742	0.003682	83.178418	2.830000	36.983727	24.942430	58.402769
19585.085230	1.018842	0.001582	1.018843	127.059862	0.114787	0.031123	-15.632301	-15.632301	-15.632301	0.002533	83.473478	2.830000	36.779625	24.654397	58.187539
19867.199185	1.018816	0.004128	1.018825	127.159600	0.116177	0.030686	-15.864214	-15.864214	-15.864214	0.002212	83.787340	2.830000	36.599980	24.359455	57.932548
20000.000000	1.019624	0.005010	1.019636	127.214339	0.116826	0.030483	-15.974274	-15.974274	-15.974274	0.002430	83.938328	2.830000	36.534486	24.224057	57.796402
